# entry-subent-pointer  : 23591-003-0 
# EXFOR reaction        : ['92-U-235', ['N,F'], 'MASS,PRE,FY'] 
# incident energy       : 2.0000e+00 MeV 
# target                : U-235 
# product               : 74.0 <= A <= 166.0 
# level energy          : - 
# MF-MT number          : 8 - 460 
# first author          : Ch.Straede 
# institute             : (2ZZZGEL): EC Joint Research Centre (EC-JRC), Geel 
# reference             : (J,NP/A,462,85,1987) 
# year                  : 1987 
# facility              : (VDG): Van de Graaff 
# git                   : https://github.com/IAEA-NDS/exfor_master/blob/main/exforall/235/23591.x4 
# nds                   : https://nds.iaea.org/EXFOR/23591
#
# Charge(No Dim.)    Mass(No Dim.)  Isomer(No Dim.)    Yield(%/fiss)   dYield(%/fiss)
                              74.0                       2.02000E-04      0.00000E+00
                              76.0                       3.84000E-04      0.00000E+00
                              78.0                       5.66000E-04      0.00000E+00
                              80.0                       9.78000E-04      0.00000E+00
                              81.0                       2.13300E-03      0.00000E+00
                              82.0                       1.38300E-03      0.00000E+00
                              83.0                       3.97100E-03      0.00000E+00
                              84.0                       6.53800E-03      0.00000E+00
                              85.0                       8.87500E-03      0.00000E+00
                              86.0                       1.24020E-02      0.00000E+00
                              87.0                       1.66320E-02      0.00000E+00
                              88.0                       2.27530E-02      0.00000E+00
                              89.0                       2.65090E-02      0.00000E+00
                              90.0                       3.61850E-02      0.00000E+00
                              91.0                       4.32590E-02      0.00000E+00
                              92.0                       5.08060E-02      0.00000E+00
                              93.0                       5.76360E-02      0.00000E+00
                              94.0                       6.09200E-02      0.00000E+00
                              95.0                       5.97030E-02      0.00000E+00
                              96.0                       6.91490E-02      0.00000E+00
                              97.0                       6.36690E-02      0.00000E+00
                              98.0                       6.64800E-02      0.00000E+00
                              99.0                       6.14860E-02      0.00000E+00
                             100.0                       6.00400E-02      0.00000E+00
                             101.0                       5.76410E-02      0.00000E+00
                             102.0                       5.38300E-02      0.00000E+00
                             103.0                       4.57490E-02      0.00000E+00
                             104.0                       3.31750E-02      0.00000E+00
                             105.0                       2.93640E-02      0.00000E+00
                             106.0                       1.74990E-02      0.00000E+00
                             107.0                       1.32080E-02      0.00000E+00
                             108.0                       7.74200E-03      0.00000E+00
                             109.0                       3.68800E-03      0.00000E+00
                             110.0                       1.83200E-03      0.00000E+00
                             111.0                       4.80000E-04      0.00000E+00
                             112.0                       6.43000E-04      0.00000E+00
                             113.0                       5.21000E-04      0.00000E+00
                             114.0                       3.77000E-04      0.00000E+00
                             115.0                       3.97000E-04      0.00000E+00
                             117.0                       2.74000E-04      0.00000E+00
                             118.0                       1.98000E-04      0.00000E+00
                             120.0                       2.42000E-04      0.00000E+00
                             121.0                       4.52000E-04      0.00000E+00
                             122.0                       2.83000E-04      0.00000E+00
                             123.0                       6.59000E-04      0.00000E+00
                             124.0                       4.67000E-04      0.00000E+00
                             125.0                       8.19000E-04      0.00000E+00
                             126.0                       1.61900E-03      0.00000E+00
                             127.0                       3.16300E-03      0.00000E+00
                             128.0                       7.86600E-03      0.00000E+00
                             129.0                       1.23250E-02      0.00000E+00
                             130.0                       2.05880E-02      0.00000E+00
                             131.0                       2.81280E-02      0.00000E+00
                             132.0                       3.92220E-02      0.00000E+00
                             133.0                       4.43980E-02      0.00000E+00
                             134.0                       5.38430E-02      0.00000E+00
                             135.0                       5.85460E-02      0.00000E+00
                             137.0                       6.01470E-02      0.00000E+00
                             138.0                       6.60310E-02      0.00000E+00
                             139.0                       6.38690E-02      0.00000E+00
                             140.0                       6.03010E-02      0.00000E+00
                             141.0                       6.28690E-02      0.00000E+00
                             142.0                       5.88210E-02      0.00000E+00
                             143.0                       5.73610E-02      0.00000E+00
                             144.0                       4.81110E-02      0.00000E+00
                             145.0                       4.28750E-02      0.00000E+00
                             146.0                       3.66920E-02      0.00000E+00
                             147.0                       3.00300E-02      0.00000E+00
                             148.0                       2.29080E-02      0.00000E+00
                             149.0                       1.74280E-02      0.00000E+00
                             150.0                       1.17250E-02      0.00000E+00
                             151.0                       9.56300E-03      0.00000E+00
                             152.0                       6.69800E-03      0.00000E+00
                             153.0                       5.25200E-03      0.00000E+00
                             154.0                       2.61600E-03      0.00000E+00
                             156.0                       1.38600E-03      0.00000E+00
                             158.0                       6.16000E-04      0.00000E+00
                             160.0                       3.18000E-04      0.00000E+00
                             162.0                       2.63000E-04      0.00000E+00
                             164.0                       2.09000E-04      0.00000E+00
                             166.0                       3.77000E-04      0.00000E+00
