# entry-subent-pointer  : 23591-003-0 
# EXFOR reaction        : ['92-U-235', ['N,F'], 'MASS,PRE,FY'] 
# incident energy       : 2.5000e+00 MeV 
# target                : U-235 
# product               : 74.0 <= A <= 166.0 
# level energy          : - 
# MF-MT number          : 8 - 460 
# first author          : Ch.Straede 
# institute             : (2ZZZGEL): EC Joint Research Centre (EC-JRC), Geel 
# reference             : (J,NP/A,462,85,1987) 
# year                  : 1987 
# facility              : (VDG): Van de Graaff 
# git                   : https://github.com/IAEA-NDS/exfor_master/blob/main/exforall/235/23591.x4 
# nds                   : https://nds.iaea.org/EXFOR/23591
#
# Charge(No Dim.)    Mass(No Dim.)  Isomer(No Dim.)    Yield(%/fiss)   dYield(%/fiss)
                              74.0                       6.03000E-04      0.00000E+00
                              75.0                       5.57000E-04      0.00000E+00
                              77.0                       9.67000E-04      0.00000E+00
                              79.0                       1.16300E-03      0.00000E+00
                              80.0                       1.83500E-03      0.00000E+00
                              82.0                       3.44100E-03      0.00000E+00
                              83.0                       4.58300E-03      0.00000E+00
                              84.0                       5.96100E-03      0.00000E+00
                              85.0                       9.22600E-03      0.00000E+00
                              86.0                       1.34310E-02      0.00000E+00
                              87.0                       1.62320E-02      0.00000E+00
                              88.0                       2.63210E-02      0.00000E+00
                              89.0                       2.93510E-02      0.00000E+00
                              90.0                       3.52020E-02      0.00000E+00
                              91.0                       4.41090E-02      0.00000E+00
                              92.0                       5.09140E-02      0.00000E+00
                              93.0                       5.62950E-02      0.00000E+00
                              94.0                       5.88480E-02      0.00000E+00
                              95.0                       6.11790E-02      0.00000E+00
                              96.0                       6.77350E-02      0.00000E+00
                              97.0                       6.27720E-02      0.00000E+00
                              98.0                       6.62720E-02      0.00000E+00
                              99.0                       6.34240E-02      0.00000E+00
                             100.0                       5.58610E-02      0.00000E+00
                             101.0                       6.19600E-02      0.00000E+00
                             102.0                       5.01590E-02      0.00000E+00
                             103.0                       4.70760E-02      0.00000E+00
                             104.0                       3.31590E-02      0.00000E+00
                             105.0                       2.86720E-02      0.00000E+00
                             106.0                       1.85170E-02      0.00000E+00
                             107.0                       1.19070E-02      0.00000E+00
                             108.0                       7.64200E-03      0.00000E+00
                             109.0                       4.31800E-03      0.00000E+00
                             110.0                       2.09900E-03      0.00000E+00
                             111.0                       1.17800E-03      0.00000E+00
                             112.0                       6.34000E-04      0.00000E+00
                             113.0                       5.13000E-04      0.00000E+00
                             114.0                       4.62000E-04      0.00000E+00
                             116.0                       2.95000E-04      0.00000E+00
                             117.0                       4.56000E-04      0.00000E+00
                             118.0                       4.51000E-04      0.00000E+00
                             119.0                       4.24000E-04      0.00000E+00
                             120.0                       2.34000E-04      0.00000E+00
                             121.0                       4.90000E-04      0.00000E+00
                             122.0                       6.29000E-04      0.00000E+00
                             123.0                       7.91000E-04      0.00000E+00
                             124.0                       9.77000E-04      0.00000E+00
                             125.0                       8.81000E-04      0.00000E+00
                             126.0                       1.95900E-03      0.00000E+00
                             127.0                       4.27100E-03      0.00000E+00
                             128.0                       8.25500E-03      0.00000E+00
                             129.0                       1.19760E-02      0.00000E+00
                             130.0                       2.06490E-02      0.00000E+00
                             131.0                       3.05090E-02      0.00000E+00
                             132.0                       3.44800E-02      0.00000E+00
                             133.0                       4.74030E-02      0.00000E+00
                             134.0                       5.46580E-02      0.00000E+00
                             136.0                       5.43770E-02      0.00000E+00
                             137.0                       6.39960E-02      0.00000E+00
                             138.0                       6.72610E-02      0.00000E+00
                             139.0                       6.22970E-02      0.00000E+00
                             140.0                       6.43740E-02      0.00000E+00
                             141.0                       6.15260E-02      0.00000E+00
                             142.0                       5.79660E-02      0.00000E+00
                             143.0                       5.60590E-02      0.00000E+00
                             144.0                       5.10890E-02      0.00000E+00
                             145.0                       4.28340E-02      0.00000E+00
                             146.0                       3.57410E-02      0.00000E+00
                             147.0                       3.10060E-02      0.00000E+00
                             148.0                       2.29730E-02      0.00000E+00
                             149.0                       1.70690E-02      0.00000E+00
                             150.0                       1.42210E-02      0.00000E+00
                             151.0                       9.24400E-03      0.00000E+00
                             152.0                       6.63200E-03      0.00000E+00
                             153.0                       4.95900E-03      0.00000E+00
                             154.0                       3.28100E-03      0.00000E+00
                             155.0                       1.83000E-03      0.00000E+00
                             157.0                       8.50000E-04      0.00000E+00
                             158.0                       8.04000E-04      0.00000E+00
                             160.0                       5.16000E-04      0.00000E+00
                             162.0                       4.56000E-04      0.00000E+00
                             164.0                       1.61000E-04      0.00000E+00
                             166.0                       3.43000E-04      0.00000E+00
