# entry-subent-pointer  : 23591-003-0 
# EXFOR reaction        : ['92-U-235', ['N,F'], 'MASS,PRE,FY'] 
# incident energy       : 3.0000e+00 MeV 
# target                : U-235 
# product               : 74.0 <= A <= 166.0 
# level energy          : - 
# MF-MT number          : 8 - 460 
# first author          : Ch.Straede 
# institute             : (2ZZZGEL): EC Joint Research Centre (EC-JRC), Geel 
# reference             : (J,NP/A,462,85,1987) 
# year                  : 1987 
# facility              : (VDG): Van de Graaff 
# git                   : https://github.com/IAEA-NDS/exfor_master/blob/main/exforall/235/23591.x4 
# nds                   : https://nds.iaea.org/EXFOR/23591
#
# Charge(No Dim.)    Mass(No Dim.)  Isomer(No Dim.)    Yield(%/fiss)   dYield(%/fiss)
                              74.0                       1.22000E-04      0.00000E+00
                              76.0                       1.67000E-04      0.00000E+00
                              78.0                       2.49000E-04      0.00000E+00
                              79.0                       9.13000E-04      0.00000E+00
                              81.0                       2.04100E-03      0.00000E+00
                              82.0                       3.19000E-03      0.00000E+00
                              83.0                       4.57300E-03      0.00000E+00
                              84.0                       7.60200E-03      0.00000E+00
                              85.0                       9.92600E-03      0.00000E+00
                              86.0                       1.43660E-02      0.00000E+00
                              87.0                       1.76300E-02      0.00000E+00
                              88.0                       2.39570E-02      0.00000E+00
                              89.0                       3.05130E-02      0.00000E+00
                              90.0                       3.66050E-02      0.00000E+00
                              91.0                       4.52760E-02      0.00000E+00
                              92.0                       4.97160E-02      0.00000E+00
                              93.0                       5.32220E-02      0.00000E+00
                              94.0                       5.88440E-02      0.00000E+00
                              95.0                       6.39820E-02      0.00000E+00
                              96.0                       6.63060E-02      0.00000E+00
                              97.0                       6.46330E-02      0.00000E+00
                              98.0                       5.94340E-02      0.00000E+00
                              99.0                       6.12810E-02      0.00000E+00
                             100.0                       5.86680E-02      0.00000E+00
                             101.0                       5.27500E-02      0.00000E+00
                             102.0                       4.99020E-02      0.00000E+00
                             103.0                       4.44610E-02      0.00000E+00
                             104.0                       3.50160E-02      0.00000E+00
                             105.0                       2.69890E-02      0.00000E+00
                             106.0                       2.10710E-02      0.00000E+00
                             107.0                       1.18820E-02      0.00000E+00
                             108.0                       7.13900E-03      0.00000E+00
                             108.0                       4.54000E-03      0.00000E+00
                             109.0                       2.86700E-03      0.00000E+00
                             110.0                       2.59000E-03      0.00000E+00
                             111.0                       1.34000E-03      0.00000E+00
                             112.0                       7.72000E-04      0.00000E+00
                             113.0                       8.87000E-04      0.00000E+00
                             114.0                       4.60000E-04      0.00000E+00
                             116.0                       6.21000E-04      0.00000E+00
                             118.0                       4.51000E-04      0.00000E+00
                             119.0                       5.41000E-04      0.00000E+00
                             120.0                       6.31000E-04      0.00000E+00
                             121.0                       5.34000E-04      0.00000E+00
                             123.0                       7.17000E-04      0.00000E+00
                             124.0                       1.46700E-03      0.00000E+00
                             125.0                       1.77000E-03      0.00000E+00
                             126.0                       3.06100E-03      0.00000E+00
                             127.0                       4.93800E-03      0.00000E+00
                             128.0                       9.61900E-03      0.00000E+00
                             129.0                       1.61750E-02      0.00000E+00
                             130.0                       2.36780E-02      0.00000E+00
                             131.0                       3.23490E-02      0.00000E+00
                             132.0                       3.70240E-02      0.00000E+00
                             134.0                       5.01620E-02      0.00000E+00
                             135.0                       5.62410E-02      0.00000E+00
                             136.0                       5.73820E-02      0.00000E+00
                             137.0                       6.13590E-02      0.00000E+00
                             138.0                       6.43810E-02      0.00000E+00
                             140.0                       6.55020E-02      0.00000E+00
                             141.0                       5.88860E-02      0.00000E+00
                             142.0                       5.74480E-02      0.00000E+00
                             143.0                       5.41230E-02      0.00000E+00
                             144.0                       4.84460E-02      0.00000E+00
                             145.0                       4.15950E-02      0.00000E+00
                             146.0                       3.54490E-02      0.00000E+00
                             147.0                       2.83620E-02      0.00000E+00
                             148.0                       2.22220E-02      0.00000E+00
                             149.0                       1.70160E-02      0.00000E+00
                             150.0                       1.39260E-02      0.00000E+00
                             151.0                       9.19000E-03      0.00000E+00
                             152.0                       7.28200E-03      0.00000E+00
                             153.0                       5.38100E-03      0.00000E+00
                             154.0                       3.93700E-03      0.00000E+00
                             155.0                       1.54500E-03      0.00000E+00
                             157.0                       1.25600E-03      0.00000E+00
                             158.0                       7.45000E-04      0.00000E+00
                             160.0                       4.63000E-04      0.00000E+00
                             162.0                       3.95000E-04      0.00000E+00
                             164.0                       1.19000E-04      0.00000E+00
                             166.0                       5.10000E-05      0.00000E+00
