# entry-subent-pointer  : O1452-003-0 
# EXFOR reaction        : ['94-PU-242', ['P,F'], 'MASS,PRE,FY'] 
# incident energy       : 1.3000e+01 MeV 
# target                : Pu-242 
# product               : 63.0 <= A <= 180.0 
# level energy          : - 
# MF-MT number          : 8 - 460 
# first author          : V.A.Rubchenya 
# institute             : (2SF JYV): University of Jyvaskyla, Jyvaskyla 
# reference             : (J,NP/A,734,253,2004) 
# year                  : 2004 
# facility              : (CYCLO): Cyclotron 
# git                   : https://github.com/IAEA-NDS/exfor_master/blob/main/exforall/O14/O1452.x4 
# nds                   : https://nds.iaea.org/EXFOR/O1452
#
# Charge(No Dim.)    Mass(No Dim.)  Isomer(No Dim.)    Yield(%/fiss)   dYield(%/fiss)
                              63.0                       3.00000E-05      1.00000E-05
                              64.0                       6.00000E-05      2.00000E-05
                              65.0                       9.00000E-05      3.00000E-05
                              66.0                       2.00000E-04      4.00000E-05
                              67.0                       2.30000E-04      4.00000E-05
                              68.0                       3.80000E-04      5.00000E-05
                              69.0                       9.30000E-04      8.00000E-05
                              70.0                       1.34000E-03      1.00000E-04
                              71.0                       2.04000E-03      1.20000E-04
                              72.0                       2.77000E-03      1.40000E-04
                              73.0                       4.35000E-03      1.80000E-04
                              74.0                       7.82000E-03      2.40000E-04
                              75.0                       1.17400E-02      2.90000E-04
                              76.0                       1.88900E-02      3.70000E-04
                              77.0                       2.74100E-02      4.40000E-04
                              78.0                       4.14200E-02      5.50000E-04
                              79.0                       6.09500E-02      6.60000E-04
                              80.0                       8.98500E-02      8.00000E-04
                              81.0                       1.24710E-01      9.50000E-04
                              82.0                       1.68500E-01      1.10000E-03
                              83.0                       2.28230E-01      1.28000E-03
                              84.0                       2.92830E-01      1.45000E-03
                              85.0                       3.81750E-01      1.66000E-03
                              86.0                       4.75520E-01      1.85000E-03
                              87.0                       5.94160E-01      2.07000E-03
                              88.0                       7.14690E-01      2.27000E-03
                              89.0                       8.61270E-01      2.49000E-03
                              90.0                       1.01762E+00      2.71000E-03
                              91.0                       1.20723E+00      2.95000E-03
                              92.0                       1.42159E+00      3.20000E-03
                              93.0                       1.63026E+00      3.43000E-03
                              94.0                       1.87381E+00      3.67000E-03
                              95.0                       2.11249E+00      3.90000E-03
                              96.0                       2.38141E+00      4.14000E-03
                              97.0                       2.69202E+00      4.40000E-03
                              98.0                       2.96474E+00      4.62000E-03
                              99.0                       3.27351E+00      4.86000E-03
                             100.0                       3.54474E+00      5.05000E-03
                             101.0                       3.81798E+00      5.24000E-03
                             102.0                       4.06959E+00      5.41000E-03
                             103.0                       4.26395E+00      5.54000E-03
                             104.0                       4.43534E+00      5.65000E-03
                             105.0                       4.61651E+00      5.77000E-03
                             106.0                       4.66334E+00      5.80000E-03
                             107.0                       4.72085E+00      5.83000E-03
                             108.0                       4.65105E+00      5.79000E-03
                             109.0                       4.57921E+00      5.74000E-03
                             110.0                       4.36662E+00      5.61000E-03
                             111.0                       4.05923E+00      5.41000E-03
                             112.0                       3.70883E+00      5.17000E-03
                             113.0                       3.30787E+00      4.88000E-03
                             114.0                       2.91608E+00      4.58000E-03
                             115.0                       2.55187E+00      4.29000E-03
                             116.0                       2.21268E+00      3.99000E-03
                             117.0                       1.94183E+00      3.74000E-03
                             118.0                       1.70575E+00      3.51000E-03
                             119.0                       1.52534E+00      3.31000E-03
                             120.0                       1.40924E+00      3.19000E-03
                             121.0                       1.31425E+00      3.08000E-03
                             122.0                       1.31425E+00      3.08000E-03
                             123.0                       1.40924E+00      3.19000E-03
                             124.0                       1.52534E+00      3.31000E-03
                             125.0                       1.70575E+00      3.51000E-03
                             126.0                       1.94183E+00      3.74000E-03
                             127.0                       2.21268E+00      3.99000E-03
                             128.0                       2.55187E+00      4.29000E-03
                             129.0                       2.91608E+00      4.58000E-03
                             130.0                       3.30787E+00      4.88000E-03
                             131.0                       3.70883E+00      5.17000E-03
                             132.0                       4.05923E+00      5.41000E-03
                             133.0                       4.36662E+00      5.61000E-03
                             134.0                       4.57921E+00      5.74000E-03
                             135.0                       4.65105E+00      5.79000E-03
                             136.0                       4.72085E+00      5.83000E-03
                             137.0                       4.66334E+00      5.80000E-03
                             138.0                       4.61651E+00      5.77000E-03
                             139.0                       4.43534E+00      5.65000E-03
                             140.0                       4.26395E+00      5.54000E-03
                             141.0                       4.06959E+00      5.41000E-03
                             142.0                       3.81798E+00      5.24000E-03
                             143.0                       3.54474E+00      5.05000E-03
                             144.0                       3.27351E+00      4.86000E-03
                             145.0                       2.96474E+00      4.62000E-03
                             146.0                       2.69202E+00      4.40000E-03
                             147.0                       2.38141E+00      4.14000E-03
                             148.0                       2.11249E+00      3.90000E-03
                             149.0                       1.87381E+00      3.67000E-03
                             150.0                       1.63026E+00      3.43000E-03
                             151.0                       1.42159E+00      3.20000E-03
                             152.0                       1.20723E+00      2.95000E-03
                             153.0                       1.01762E+00      2.71000E-03
                             154.0                       8.61270E-01      2.49000E-03
                             155.0                       7.14690E-01      2.27000E-03
                             156.0                       5.94160E-01      2.07000E-03
                             157.0                       4.75520E-01      1.85000E-03
                             158.0                       3.81750E-01      1.66000E-03
                             159.0                       2.92830E-01      1.45000E-03
                             160.0                       2.28230E-01      1.28000E-03
                             161.0                       1.68500E-01      1.10000E-03
                             162.0                       1.24710E-01      9.50000E-04
                             163.0                       8.98500E-02      8.00000E-04
                             164.0                       6.09500E-02      6.60000E-04
                             165.0                       4.14200E-02      5.50000E-04
                             166.0                       2.74100E-02      4.40000E-04
                             167.0                       1.88900E-02      3.70000E-04
                             168.0                       1.17400E-02      2.90000E-04
                             169.0                       7.82000E-03      2.40000E-04
                             170.0                       4.35000E-03      1.80000E-04
                             171.0                       2.77000E-03      1.40000E-04
                             172.0                       2.04000E-03      1.20000E-04
                             173.0                       1.34000E-03      1.00000E-04
                             174.0                       9.30000E-04      8.00000E-05
                             175.0                       3.80000E-04      5.00000E-05
                             176.0                       2.30000E-04      4.00000E-05
                             177.0                       2.00000E-04      4.00000E-05
                             178.0                       9.00000E-05      3.00000E-05
                             179.0                       6.00000E-05      2.00000E-05
                             180.0                       3.00000E-05      1.00000E-05
