# entry-subent-pointer  : O0941-002-0 
# EXFOR reaction        : ['92-U-238', ['P,F'], 'MASS,PRE,FY'] 
# incident energy       : 5.0000e+01 MeV 
# target                : U-238 
# product               : 72.0 <= A <= 169.0 
# level energy          : - 
# MF-MT number          : 8 - 460 
# first author          : V.A.Rubchenya 
# institute             : (2SF JYV): University of Jyvaskyla, Jyvaskyla 
# reference             : (J,NIM/A,463,653,2001) 
# year                  : 2001 
# facility              : (CYCLO): Cyclotron 
# git                   : https://github.com/IAEA-NDS/exfor_master/blob/main/exforall/O09/O0941.x4 
# nds                   : https://nds.iaea.org/EXFOR/O0941
#
# Charge(No Dim.)    Mass(No Dim.)  Isomer(No Dim.)    Yield(%/fiss)   dYield(%/fiss)
                              72.0                       2.27000E-04      0.00000E+00
                              73.0                       4.08700E-04      0.00000E+00
                              74.0                       5.44900E-04      0.00000E+00
                              75.0                       8.62700E-04      0.00000E+00
                              76.0                       1.38000E-03      0.00000E+00
                              77.0                       2.09000E-03      0.00000E+00
                              78.0                       2.34000E-03      0.00000E+00
                              79.0                       2.63000E-03      0.00000E+00
                              80.0                       3.54000E-03      0.00000E+00
                              81.0                       4.56000E-03      0.00000E+00
                              82.0                       7.20000E-03      0.00000E+00
                              83.0                       8.04000E-03      0.00000E+00
                              84.0                       1.00600E-02      0.00000E+00
                              85.0                       1.32100E-02      0.00000E+00
                              86.0                       1.42400E-02      0.00000E+00
                              87.0                       1.61200E-02      0.00000E+00
                              88.0                       1.79400E-02      0.00000E+00
                              89.0                       2.13000E-02      0.00000E+00
                              90.0                       2.14600E-02      0.00000E+00
                              91.0                       2.59700E-02      0.00000E+00
                              92.0                       2.77200E-02      0.00000E+00
                              93.0                       2.87400E-02      0.00000E+00
                              94.0                       2.89200E-02      0.00000E+00
                              95.0                       3.18100E-02      0.00000E+00
                              96.0                       3.32400E-02      0.00000E+00
                              97.0                       3.64400E-02      0.00000E+00
                              98.0                       3.43700E-02      0.00000E+00
                              99.0                       3.44400E-02      0.00000E+00
                             100.0                       3.45100E-02      0.00000E+00
                             101.0                       3.76400E-02      0.00000E+00
                             102.0                       3.55100E-02      0.00000E+00
                             103.0                       3.59400E-02      0.00000E+00
                             104.0                       3.38100E-02      0.00000E+00
                             105.0                       3.31700E-02      0.00000E+00
                             106.0                       3.54600E-02      0.00000E+00
                             107.0                       3.16300E-02      0.00000E+00
                             108.0                       3.14900E-02      0.00000E+00
                             109.0                       3.09200E-02      0.00000E+00
                             110.0                       3.01700E-02      0.00000E+00
                             111.0                       2.70400E-02      0.00000E+00
                             112.0                       2.82700E-02      0.00000E+00
                             113.0                       3.06300E-02      0.00000E+00
                             114.0                       2.77400E-02      0.00000E+00
                             115.0                       2.68100E-02      0.00000E+00
                             116.0                       2.85200E-02      0.00000E+00
                             117.0                       2.61100E-02      0.00000E+00
                             118.0                       2.67200E-02      0.00000E+00
                             119.0                       2.74700E-02      0.00000E+00
                             120.0                       2.77200E-02      0.00000E+00
                             121.0                       2.80200E-02      0.00000E+00
                             122.0                       2.51300E-02      0.00000E+00
                             123.0                       2.77700E-02      0.00000E+00
                             124.0                       2.60400E-02      0.00000E+00
                             125.0                       2.77200E-02      0.00000E+00
                             126.0                       2.85200E-02      0.00000E+00
                             127.0                       2.75900E-02      0.00000E+00
                             128.0                       2.92700E-02      0.00000E+00
                             129.0                       3.11000E-02      0.00000E+00
                             130.0                       3.01300E-02      0.00000E+00
                             131.0                       3.31000E-02      0.00000E+00
                             132.0                       3.35100E-02      0.00000E+00
                             133.0                       3.25300E-02      0.00000E+00
                             134.0                       3.27400E-02      0.00000E+00
                             135.0                       3.36500E-02      0.00000E+00
                             136.0                       3.21700E-02      0.00000E+00
                             137.0                       3.35600E-02      0.00000E+00
                             138.0                       3.51200E-02      0.00000E+00
                             139.0                       3.42800E-02      0.00000E+00
                             140.0                       3.56200E-02      0.00000E+00
                             141.0                       3.27800E-02      0.00000E+00
                             142.0                       3.36700E-02      0.00000E+00
                             143.0                       3.07900E-02      0.00000E+00
                             144.0                       2.80600E-02      0.00000E+00
                             145.0                       2.51800E-02      0.00000E+00
                             146.0                       2.53100E-02      0.00000E+00
                             147.0                       2.15900E-02      0.00000E+00
                             148.0                       1.93400E-02      0.00000E+00
                             149.0                       1.63000E-02      0.00000E+00
                             150.0                       1.36900E-02      0.00000E+00
                             151.0                       1.31000E-02      0.00000E+00
                             152.0                       1.06000E-02      0.00000E+00
                             153.0                       8.31000E-03      0.00000E+00
                             154.0                       5.74000E-03      0.00000E+00
                             155.0                       4.95000E-03      0.00000E+00
                             156.0                       4.50000E-03      0.00000E+00
                             157.0                       3.16000E-03      0.00000E+00
                             158.0                       2.02000E-03      0.00000E+00
                             159.0                       1.52000E-03      0.00000E+00
                             160.0                       1.29000E-03      0.00000E+00
                             161.0                       1.02000E-03      0.00000E+00
                             162.0                       7.26500E-04      0.00000E+00
                             163.0                       5.22200E-04      0.00000E+00
                             164.0                       1.36200E-04      0.00000E+00
                             165.0                       2.95200E-04      0.00000E+00
                             166.0                       3.40600E-04      0.00000E+00
                             167.0                       1.58900E-04      0.00000E+00
                             168.0                       6.81000E-05      0.00000E+00
                             169.0                       9.08000E-05      0.00000E+00
