# entry-subent-pointer  : 22700-016-0 
# EXFOR reaction        : ['30-ZN-0', ['N,X'], '28-NI-65,,SIG'] 
# incident energy       : 9.5000e+00 MeV - 3.8500e+01 MeV 
# target                : Zn-0 
# product               : Ni-65 
# level energy          : - 
# MF-MT number          : 3 - 10 
# first author          : Y.Uwamino 
# institute             : (2JPNTOK): University of Tokyo, Tokyo 
# reference             : (J,NST,31,1,1994) 
# year                  : 1994 
# facility              : (CYCLO): Cyclotron 
# git                   : https://github.com/IAEA-NDS/exfor_master/blob/main/exforall/227/22700.x4 
# nds                   : https://nds.iaea.org/EXFOR/22700
#
#       E_in(MeV)       dE_in(MeV)            XS(B)           dXS(B)
      9.50000E+00      0.00000E+00      5.35200E-04      3.01000E-04
      1.05000E+01      0.00000E+00      8.40600E-04      7.05000E-04
      1.15000E+01      0.00000E+00      1.06500E-03      7.17000E-04
      1.25000E+01      0.00000E+00      1.45200E-03      1.03000E-03
      1.35000E+01      0.00000E+00      1.33700E-03      1.37000E-03
      1.45000E+01      0.00000E+00      1.62500E-03      9.34000E-04
      1.55000E+01      0.00000E+00      2.22400E-03      1.27000E-03
      1.65000E+01      0.00000E+00      1.76400E-03      1.04000E-03
      1.75000E+01      0.00000E+00      1.57600E-03      6.69000E-04
      1.85000E+01      0.00000E+00      1.66700E-03      8.29000E-04
      1.95000E+01      0.00000E+00      1.33300E-03      5.19000E-04
      2.05000E+01      0.00000E+00      6.58300E-04      3.45000E-04
      2.15000E+01      0.00000E+00      4.27900E-04      2.31000E-04
      2.25000E+01      0.00000E+00      3.53700E-04      1.92000E-04
      2.35000E+01      0.00000E+00      2.55100E-04      1.41000E-04
      2.45000E+01      0.00000E+00      2.19800E-04      1.21000E-04
      2.55000E+01      0.00000E+00      2.97800E-04      1.61000E-04
      2.65000E+01      0.00000E+00      3.29400E-04      1.78000E-04
      2.75000E+01      0.00000E+00      3.92500E-04      2.09000E-04
      2.85000E+01      0.00000E+00      2.93800E-04      1.59000E-04
      2.95000E+01      0.00000E+00      3.10800E-04      1.67000E-04
      3.05000E+01      0.00000E+00      3.05500E-04      1.67000E-04
      3.15000E+01      0.00000E+00      2.71300E-04      1.50000E-04
      3.25000E+01      0.00000E+00      2.85100E-04      1.58000E-04
      3.35000E+01      0.00000E+00      2.82900E-04      1.56000E-04
      3.45000E+01      0.00000E+00      2.77600E-04      1.52000E-04
      3.55000E+01      0.00000E+00      2.79300E-04      1.53000E-04
      3.65000E+01      0.00000E+00      2.81000E-04      1.55000E-04
      3.75000E+01      0.00000E+00      2.77200E-04      1.52000E-04
      3.85000E+01      0.00000E+00      2.85500E-04      1.58000E-04
