# entry-subent-pointer  : 23607-009-0 
# EXFOR reaction        : (64-GD-157(N,G)64-GD-158,,SIG) 
# incident energy       : 3.5010e-09 MeV - 1.0103e-06 MeV 
# target                : Gd-157 
# product               : Gd-158 
# level energy          : - 
# MF-MT number          : 3 - 102 
# first author          : Kimura 
# institute             : (2JPNJAE): Japan Atomic Energy Agency (JAEA) 
# reference             : (J,NST,60,678,2023) 
# year                  : 2023 
# facility              : (SYNCH): Synchrotron 
# git                   : https://github.com/IAEA-NDS/exfor_master/blob/main/exforall/236/23607.x4 
# nds                   : https://nds.iaea.org/EXFOR/23607
#
#       E_in(MeV)         dE_in(MeV)        XS(B)             dXS(B)
        1.0103E-06        0.0000E+00       -2.0466E+04        2.5218E+04
        9.8565E-07        0.0000E+00       -3.2719E+04        3.5446E+04
        9.6190E-07        0.0000E+00       -1.1750E+04        1.8798E+04
        9.3900E-07        0.0000E+00        4.1050E+03        1.3462E+04
        9.1690E-07        0.0000E+00        6.1350E+03        1.2792E+04
        8.9558E-07        0.0000E+00        4.4510E+03        1.2544E+04
        8.7499E-07        0.0000E+00       -1.0751E+04        1.5451E+04
        8.5511E-07        0.0000E+00       -2.3470E+03        1.2542E+04
        8.3589E-07        0.0000E+00        5.2660E+03        1.0956E+04
        8.1732E-07        0.0000E+00       -1.0562E+04        1.3800E+04
        7.9935E-07        0.0000E+00        4.8370E+03        1.0421E+04
        7.8198E-07        0.0000E+00        2.0300E+02        1.0819E+04
        7.6516E-07        0.0000E+00        6.4800E+02        1.0187E+04
        7.4888E-07        0.0000E+00       -2.9080E+03        1.0632E+04
        7.3312E-07        0.0000E+00       -1.5540E+03        1.0060E+04
        7.1784E-07        0.0000E+00       -2.6340E+03        1.0000E+04
        7.0304E-07        0.0000E+00        5.0480E+03        8.5600E+03
        6.8870E-07        0.0000E+00        5.5900E+02        8.9200E+03
        6.7478E-07        0.0000E+00       -1.2367E+04        1.0921E+04
        6.6129E-07        0.0000E+00       -4.2250E+03        9.0540E+03
        6.4819E-07        0.0000E+00        1.4120E+03        8.2270E+03
        6.3548E-07        0.0000E+00       -1.0180E+03        8.1330E+03
        6.2314E-07        0.0000E+00       -5.0590E+03        8.4580E+03
        6.1116E-07        0.0000E+00       -7.3310E+03        8.5710E+03
        5.9952E-07        0.0000E+00        5.1710E+03        6.8910E+03
        5.8821E-07        0.0000E+00        5.3400E+02        7.0100E+03
        5.7722E-07        0.0000E+00       -2.3790E+03        7.1690E+03
        5.6653E-07        0.0000E+00        7.3200E+03        6.1300E+03
        5.5613E-07        0.0000E+00       -6.9480E+03        7.2790E+03
        5.4602E-07        0.0000E+00        3.5200E+02        6.3440E+03
        5.3618E-07        0.0000E+00        3.5620E+03        5.8630E+03
        5.2661E-07        0.0000E+00       -4.3400E+03        6.3630E+03
        5.1729E-07        0.0000E+00       -2.4290E+03        5.9790E+03
        5.0821E-07        0.0000E+00        3.5390E+03        5.3700E+03
        4.9937E-07        0.0000E+00       -3.5230E+03        5.8220E+03
        4.9076E-07        0.0000E+00       -1.2900E+02        5.2900E+03
        4.8237E-07        0.0000E+00        3.9330E+03        4.9710E+03
        4.7420E-07        0.0000E+00       -9.3900E+02        5.0660E+03
        4.6623E-07        0.0000E+00       -2.4050E+03        5.0740E+03
        4.5846E-07        0.0000E+00       -8.4670E+03        5.5290E+03
        4.5088E-07        0.0000E+00        1.9120E+03        4.5690E+03
        4.4349E-07        0.0000E+00        7.7100E+02        4.5260E+03
        4.3628E-07        0.0000E+00        7.0140E+03        4.0790E+03
        4.2924E-07        0.0000E+00       -1.1230E+03        4.4210E+03
        4.2238E-07        0.0000E+00       -4.8100E+02        4.2950E+03
        4.1567E-07        0.0000E+00        3.0750E+03        3.9700E+03
        4.0913E-07        0.0000E+00        1.4320E+03        3.9880E+03
        4.0273E-07        0.0000E+00        1.9400E+02        3.9460E+03
        3.9649E-07        0.0000E+00        2.6600E+03        3.7100E+03
        3.9039E-07        0.0000E+00        3.6500E+02        3.7160E+03
        3.8443E-07        0.0000E+00       -5.2000E+02        3.7070E+03
        3.7860E-07        0.0000E+00        1.4700E+03        3.5400E+03
        3.7291E-07        0.0000E+00       -4.8600E+03        3.7740E+03
        3.6734E-07        0.0000E+00        2.0520E+03        3.4190E+03
        3.6190E-07        0.0000E+00       -2.0440E+03        3.4270E+03
        3.5658E-07        0.0000E+00       -5.8000E+02        3.3480E+03
        3.5137E-07        0.0000E+00        3.6500E+03        3.1160E+03
        3.4628E-07        0.0000E+00       -6.5200E+02        3.1940E+03
        3.4130E-07        0.0000E+00       -6.5100E+02        3.1600E+03
        3.3642E-07        0.0000E+00        2.2240E+03        2.9760E+03
        3.3165E-07        0.0000E+00        1.2320E+03        2.9740E+03
        3.2698E-07        0.0000E+00        3.0200E+03        2.8520E+03
        3.2241E-07        0.0000E+00        2.5400E+02        2.9080E+03
        3.1793E-07        0.0000E+00        1.3180E+03        2.8010E+03
        3.1355E-07        0.0000E+00       -1.3030E+03        2.8290E+03
        3.0925E-07        0.0000E+00        1.6480E+03        2.6900E+03
        3.0504E-07        0.0000E+00        2.0000E+02        2.6320E+03
        3.0092E-07        0.0000E+00       -1.5060E+03        2.6680E+03
        2.9688E-07        0.0000E+00       -7.6800E+02        2.5740E+03
        2.9292E-07        0.0000E+00        1.2500E+03        2.4580E+03
        2.8904E-07        0.0000E+00       -2.7600E+02        2.4040E+03
        2.8524E-07        0.0000E+00        2.1260E+03        2.3300E+03
        2.8151E-07        0.0000E+00        2.0900E+03        2.2730E+03
        2.7786E-07        0.0000E+00        2.2070E+03        2.2370E+03
        2.7427E-07        0.0000E+00        2.8410E+03        2.2080E+03
        2.7076E-07        0.0000E+00        4.1500E+03        2.1390E+03
        2.6731E-07        0.0000E+00        3.5950E+03        2.1440E+03
        2.6392E-07        0.0000E+00        4.5870E+03        2.0600E+03
        2.6060E-07        0.0000E+00        4.3930E+03        1.9980E+03
        2.5734E-07        0.0000E+00        4.3340E+03        1.9370E+03
        2.5415E-07        0.0000E+00        2.4270E+03        1.9430E+03
        2.5101E-07        0.0000E+00        4.0840E+03        1.8900E+03
        2.4793E-07        0.0000E+00        2.8920E+03        1.8830E+03
        2.4491E-07        0.0000E+00        3.8990E+03        1.8260E+03
        2.4194E-07        0.0000E+00        5.6450E+03        1.7950E+03
        2.3902E-07        0.0000E+00        4.4080E+03        1.7850E+03
        2.3616E-07        0.0000E+00        4.5650E+03        1.7440E+03
        2.3335E-07        0.0000E+00        5.0630E+03        1.6850E+03
        2.3059E-07        0.0000E+00        6.2940E+03        1.6510E+03
        2.2787E-07        0.0000E+00        4.3450E+03        1.6690E+03
        2.2521E-07        0.0000E+00        6.6860E+03        1.6040E+03
        2.2259E-07        0.0000E+00        7.5520E+03        1.5570E+03
        2.2002E-07        0.0000E+00        5.4250E+03        1.5440E+03
        2.1749E-07        0.0000E+00        6.1240E+03        1.4970E+03
        2.1500E-07        0.0000E+00        6.3480E+03        1.5100E+03
        2.1256E-07        0.0000E+00        6.1540E+03        1.4720E+03
        2.1016E-07        0.0000E+00        7.6910E+03        1.4360E+03
        2.0780E-07        0.0000E+00        7.4820E+03        1.4300E+03
        2.0548E-07        0.0000E+00        6.8430E+03        1.4180E+03
        2.0319E-07        0.0000E+00        8.1230E+03        1.3910E+03
        2.0095E-07        0.0000E+00        8.2340E+03        1.3830E+03
        1.9874E-07        0.0000E+00        9.8550E+03        1.3460E+03
        1.9657E-07        0.0000E+00        9.1950E+03        1.3580E+03
        1.9443E-07        0.0000E+00        7.8560E+03        1.3360E+03
        1.9233E-07        0.0000E+00        8.6500E+03        1.2960E+03
        1.9026E-07        0.0000E+00        8.5680E+03        1.2860E+03
        1.8823E-07        0.0000E+00        9.7800E+03        1.2810E+03
        1.8622E-07        0.0000E+00        9.3860E+03        1.2620E+03
        1.8425E-07        0.0000E+00        1.0452E+04        1.2370E+03
        1.8231E-07        0.0000E+00        1.0730E+04        1.2210E+03
        1.8040E-07        0.0000E+00        1.0707E+04        1.2110E+03
        1.7852E-07        0.0000E+00        1.1640E+04        1.2080E+03
        1.7667E-07        0.0000E+00        1.2122E+04        1.2020E+03
        1.7485E-07        0.0000E+00        1.2920E+04        1.1830E+03
        1.7306E-07        0.0000E+00        1.2040E+04        1.1720E+03
        1.7129E-07        0.0000E+00        1.2851E+04        1.1560E+03
        1.6956E-07        0.0000E+00        1.2970E+04        1.1350E+03
        1.6784E-07        0.0000E+00        1.4044E+04        1.1350E+03
        1.6616E-07        0.0000E+00        1.3040E+04        1.1350E+03
        1.6449E-07        0.0000E+00        1.4175E+04        1.1310E+03
        1.6286E-07        0.0000E+00        1.5007E+04        1.1270E+03
        1.6125E-07        0.0000E+00        1.4770E+04        1.1210E+03
        1.5966E-07        0.0000E+00        1.5585E+04        1.1150E+03
        1.5809E-07        0.0000E+00        1.6096E+04        1.1120E+03
        1.5655E-07        0.0000E+00        1.7115E+04        1.0980E+03
        1.5503E-07        0.0000E+00        1.8508E+04        1.0850E+03
        1.5353E-07        0.0000E+00        1.6736E+04        1.0800E+03
        1.5205E-07        0.0000E+00        1.7544E+04        1.0750E+03
        1.5060E-07        0.0000E+00        1.7928E+04        1.0670E+03
        1.4917E-07        0.0000E+00        1.8154E+04        1.0630E+03
        1.4775E-07        0.0000E+00        1.9463E+04        1.0590E+03
        1.4636E-07        0.0000E+00        1.9601E+04        1.0600E+03
        1.4498E-07        0.0000E+00        1.9231E+04        1.0540E+03
        1.4363E-07        0.0000E+00        2.0739E+04        1.0580E+03
        1.4229E-07        0.0000E+00        2.1277E+04        1.0490E+03
        1.4097E-07        0.0000E+00        2.1883E+04        1.0450E+03
        1.3968E-07        0.0000E+00        2.2869E+04        1.0540E+03
        1.3839E-07        0.0000E+00        2.2819E+04        1.0520E+03
        1.3713E-07        0.0000E+00        2.3808E+04        1.0570E+03
        1.3588E-07        0.0000E+00        2.4179E+04        1.0510E+03
        1.3465E-07        0.0000E+00        2.3162E+04        1.0460E+03
        1.3344E-07        0.0000E+00        2.3703E+04        1.0400E+03
        1.3224E-07        0.0000E+00        2.5726E+04        1.0520E+03
        1.3106E-07        0.0000E+00        2.5457E+04        1.0470E+03
        1.2990E-07        0.0000E+00        2.7500E+04        1.0560E+03
        1.2875E-07        0.0000E+00        2.7860E+04        1.0490E+03
        1.2761E-07        0.0000E+00        2.8237E+04        1.0460E+03
        1.2649E-07        0.0000E+00        2.9015E+04        1.0530E+03
        1.2539E-07        0.0000E+00        2.8763E+04        1.0450E+03
        1.2430E-07        0.0000E+00        3.0458E+04        1.0460E+03
        1.2322E-07        0.0000E+00        3.0167E+04        1.0480E+03
        1.2216E-07        0.0000E+00        3.1002E+04        1.0520E+03
        1.2111E-07        0.0000E+00        3.2968E+04        1.0630E+03
        1.2008E-07        0.0000E+00        3.2920E+04        1.0620E+03
        1.1906E-07        0.0000E+00        3.2021E+04        1.0600E+03
        1.1805E-07        0.0000E+00        3.4017E+04        1.0720E+03
        1.1705E-07        0.0000E+00        3.3930E+04        1.0640E+03
        1.1607E-07        0.0000E+00        3.4651E+04        1.0710E+03
        1.1510E-07        0.0000E+00        3.6553E+04        1.0800E+03
        1.1414E-07        0.0000E+00        3.5633E+04        1.0760E+03
        1.1319E-07        0.0000E+00        3.7573E+04        1.0870E+03
        1.1225E-07        0.0000E+00        3.8725E+04        1.0970E+03
        1.1133E-07        0.0000E+00        4.0299E+04        1.1020E+03
        1.1042E-07        0.0000E+00        4.0280E+04        1.1010E+03
        1.0952E-07        0.0000E+00        4.0462E+04        1.0980E+03
        1.0863E-07        0.0000E+00        4.1326E+04        1.1020E+03
        1.0775E-07        0.0000E+00        4.2166E+04        1.1120E+03
        1.0688E-07        0.0000E+00        4.3626E+04        1.1270E+03
        1.0602E-07        0.0000E+00        4.3060E+04        1.1170E+03
        1.0517E-07        0.0000E+00        4.4574E+04        1.1250E+03
        1.0433E-07        0.0000E+00        4.4192E+04        1.1160E+03
        1.0350E-07        0.0000E+00        4.7568E+04        1.1520E+03
        1.0269E-07        0.0000E+00        4.6865E+04        1.1500E+03
        1.0188E-07        0.0000E+00        4.9001E+04        1.1600E+03
        1.0108E-07        0.0000E+00        4.9586E+04        1.1740E+03
        1.0029E-07        0.0000E+00        4.9590E+04        1.1750E+03
        9.9509E-08        0.0000E+00        5.0563E+04        1.1800E+03
        9.8737E-08        0.0000E+00        5.1430E+04        1.1840E+03
        9.7975E-08        0.0000E+00        5.3732E+04        1.2050E+03
        9.7221E-08        0.0000E+00        5.3277E+04        1.1990E+03
        9.6476E-08        0.0000E+00        5.4407E+04        1.2060E+03
        9.5740E-08        0.0000E+00        5.4759E+04        1.2100E+03
        9.5012E-08        0.0000E+00        5.6708E+04        1.2280E+03
        9.4292E-08        0.0000E+00        5.5928E+04        1.2200E+03
        9.3580E-08        0.0000E+00        5.8245E+04        1.2380E+03
        9.2877E-08        0.0000E+00        5.9721E+04        1.2480E+03
        9.2181E-08        0.0000E+00        5.9797E+04        1.2530E+03
        9.1493E-08        0.0000E+00        6.0680E+04        1.2640E+03
        9.0813E-08        0.0000E+00        6.2002E+04        1.2750E+03
        9.0140E-08        0.0000E+00        6.2547E+04        1.2840E+03
        8.9475E-08        0.0000E+00        6.3149E+04        1.2900E+03
        8.8817E-08        0.0000E+00        6.5532E+04        1.3060E+03
        8.8166E-08        0.0000E+00        6.6204E+04        1.3150E+03
        8.7523E-08        0.0000E+00        6.7577E+04        1.3350E+03
        8.6886E-08        0.0000E+00        6.7574E+04        1.3430E+03
        8.6257E-08        0.0000E+00        6.8624E+04        1.3570E+03
        8.5634E-08        0.0000E+00        6.9050E+04        1.3510E+03
        8.5018E-08        0.0000E+00        7.2047E+04        1.3830E+03
        8.4408E-08        0.0000E+00        7.2512E+04        1.3850E+03
        8.3806E-08        0.0000E+00        7.2835E+04        1.3880E+03
        8.3209E-08        0.0000E+00        7.4098E+04        1.4040E+03
        8.2619E-08        0.0000E+00        7.4717E+04        1.4080E+03
        8.2035E-08        0.0000E+00        7.7299E+04        1.4400E+03
        8.1457E-08        0.0000E+00        7.6977E+04        1.4360E+03
        8.0886E-08        0.0000E+00        7.8620E+04        1.4580E+03
        8.0320E-08        0.0000E+00        7.8655E+04        1.4580E+03
        7.9760E-08        0.0000E+00        7.9121E+04        1.4610E+03
        7.9207E-08        0.0000E+00        8.2363E+04        1.4940E+03
        7.8658E-08        0.0000E+00        8.2353E+04        1.4920E+03
        7.8116E-08        0.0000E+00        8.2746E+04        1.5010E+03
        7.7579E-08        0.0000E+00        8.4179E+04        1.5160E+03
        7.7048E-08        0.0000E+00        8.6244E+04        1.5400E+03
        7.6522E-08        0.0000E+00        8.4102E+04        1.5110E+03
        7.6001E-08        0.0000E+00        8.9421E+04        1.5750E+03
        7.5486E-08        0.0000E+00        9.0487E+04        1.5960E+03
        7.4976E-08        0.0000E+00        9.0354E+04        1.6050E+03
        7.4471E-08        0.0000E+00        9.0472E+04        1.6060E+03
        7.3971E-08        0.0000E+00        9.0601E+04        1.5950E+03
        7.3476E-08        0.0000E+00        9.2362E+04        1.6160E+03
        7.2987E-08        0.0000E+00        9.2490E+04        1.6180E+03
        7.2502E-08        0.0000E+00        9.5577E+04        1.6580E+03
        7.2021E-08        0.0000E+00        9.5534E+04        1.6570E+03
        7.1546E-08        0.0000E+00        9.5716E+04        1.6670E+03
        7.1075E-08        0.0000E+00        9.9333E+04        1.7090E+03
        7.0609E-08        0.0000E+00        9.8713E+04        1.6990E+03
        7.0148E-08        0.0000E+00        9.8841E+04        1.7010E+03
        6.9691E-08        0.0000E+00        1.0074E+05        1.7240E+03
        6.9238E-08        0.0000E+00        1.0245E+05        1.7450E+03
        6.8790E-08        0.0000E+00        1.0382E+05        1.7670E+03
        6.8346E-08        0.0000E+00        1.0626E+05        1.8030E+03
        6.7907E-08        0.0000E+00        1.0496E+05        1.7840E+03
        6.7472E-08        0.0000E+00        1.0888E+05        1.8310E+03
        6.7040E-08        0.0000E+00        1.0722E+05        1.8180E+03
        6.6613E-08        0.0000E+00        1.1021E+05        1.8710E+03
        6.6190E-08        0.0000E+00        1.0985E+05        1.8670E+03
        6.5772E-08        0.0000E+00        1.1054E+05        1.8650E+03
        6.5357E-08        0.0000E+00        1.1338E+05        1.9020E+03
        6.4946E-08        0.0000E+00        1.1555E+05        1.9340E+03
        6.4538E-08        0.0000E+00        1.1616E+05        1.9570E+03
        6.4135E-08        0.0000E+00        1.1486E+05        1.9490E+03
        6.3735E-08        0.0000E+00        1.1527E+05        1.9420E+03
        6.3339E-08        0.0000E+00        1.1660E+05        1.9530E+03
        6.2947E-08        0.0000E+00        1.2038E+05        2.0090E+03
        6.2559E-08        0.0000E+00        1.2029E+05        2.0020E+03
        6.2174E-08        0.0000E+00        1.2170E+05        2.0230E+03
        6.1792E-08        0.0000E+00        1.2350E+05        2.0630E+03
        6.1414E-08        0.0000E+00        1.2290E+05        2.0520E+03
        6.1040E-08        0.0000E+00        1.2402E+05        2.0680E+03
        6.0669E-08        0.0000E+00        1.2446E+05        2.0740E+03
        6.0301E-08        0.0000E+00        1.2812E+05        2.1270E+03
        5.9937E-08        0.0000E+00        1.2754E+05        2.1180E+03
        5.9576E-08        0.0000E+00        1.3056E+05        2.1610E+03
        5.9218E-08        0.0000E+00        1.2945E+05        2.1500E+03
        5.8863E-08        0.0000E+00        1.2960E+05        2.1580E+03
        5.8512E-08        0.0000E+00        1.3207E+05        2.1870E+03
        5.8164E-08        0.0000E+00        1.3379E+05        2.2160E+03
        5.7818E-08        0.0000E+00        1.3394E+05        2.2250E+03
        5.7476E-08        0.0000E+00        1.3536E+05        2.2490E+03
        5.7137E-08        0.0000E+00        1.3536E+05        2.2640E+03
        5.6801E-08        0.0000E+00        1.3703E+05        2.2820E+03
        5.6468E-08        0.0000E+00        1.3762E+05        2.2760E+03
        5.6138E-08        0.0000E+00        1.3951E+05        2.3000E+03
        5.5810E-08        0.0000E+00        1.4051E+05        2.3100E+03
        5.5486E-08        0.0000E+00        1.4068E+05        2.3240E+03
        5.5164E-08        0.0000E+00        1.4218E+05        2.3590E+03
        5.4845E-08        0.0000E+00        1.4165E+05        2.3440E+03
        5.4529E-08        0.0000E+00        1.4515E+05        2.3920E+03
        5.4216E-08        0.0000E+00        1.4516E+05        2.3960E+03
        5.3905E-08        0.0000E+00        1.4700E+05        2.4270E+03
        5.3597E-08        0.0000E+00        1.4577E+05        2.4010E+03
        5.3292E-08        0.0000E+00        1.4670E+05        2.4010E+03
        5.2989E-08        0.0000E+00        1.5155E+05        2.4870E+03
        5.2689E-08        0.0000E+00        1.5126E+05        2.4930E+03
        5.2391E-08        0.0000E+00        1.4976E+05        2.4750E+03
        5.2096E-08        0.0000E+00        1.5139E+05        2.4990E+03
        5.1803E-08        0.0000E+00        1.5064E+05        2.4740E+03
        5.1513E-08        0.0000E+00        1.5274E+05        2.5040E+03
        5.1225E-08        0.0000E+00        1.5718E+05        2.5840E+03
        5.0940E-08        0.0000E+00        1.5563E+05        2.5640E+03
        5.0657E-08        0.0000E+00        1.5705E+05        2.5820E+03
        5.0376E-08        0.0000E+00        1.5808E+05        2.6030E+03
        5.0098E-08        0.0000E+00        1.5797E+05        2.5910E+03
        4.9822E-08        0.0000E+00        1.5920E+05        2.6040E+03
        4.9548E-08        0.0000E+00        1.5979E+05        2.6080E+03
        4.9277E-08        0.0000E+00        1.6631E+05        2.7120E+03
        4.9007E-08        0.0000E+00        1.6225E+05        2.6510E+03
        4.8740E-08        0.0000E+00        1.6091E+05        2.6240E+03
        4.8475E-08        0.0000E+00        1.6446E+05        2.6790E+03
        4.8213E-08        0.0000E+00        1.6491E+05        2.6760E+03
        4.7952E-08        0.0000E+00        1.6652E+05        2.7030E+03
        4.7694E-08        0.0000E+00        1.6796E+05        2.7310E+03
        4.7437E-08        0.0000E+00        1.7346E+05        2.8550E+03
        4.7183E-08        0.0000E+00        1.6911E+05        2.8080E+03
        4.6931E-08        0.0000E+00        1.6882E+05        2.8070E+03
        4.6680E-08        0.0000E+00        1.6960E+05        2.7760E+03
        4.6432E-08        0.0000E+00        1.7419E+05        2.8490E+03
        4.6186E-08        0.0000E+00        1.7141E+05        2.8020E+03
        4.5941E-08        0.0000E+00        1.7189E+05        2.7930E+03
        4.5699E-08        0.0000E+00        1.7556E+05        2.8610E+03
        4.5458E-08        0.0000E+00        1.7618E+05        2.8680E+03
        4.5220E-08        0.0000E+00        1.7737E+05        2.8860E+03
        4.4983E-08        0.0000E+00        1.7747E+05        2.8970E+03
        4.4748E-08        0.0000E+00        1.7568E+05        2.8600E+03
        4.4515E-08        0.0000E+00        1.8183E+05        2.9620E+03
        4.4284E-08        0.0000E+00        1.8020E+05        2.9480E+03
        4.4054E-08        0.0000E+00        1.7907E+05        2.9410E+03
        4.3827E-08        0.0000E+00        1.7863E+05        2.9160E+03
        4.3601E-08        0.0000E+00        1.8086E+05        2.9330E+03
        4.3377E-08        0.0000E+00        1.8299E+05        2.9640E+03
        4.3154E-08        0.0000E+00        1.8673E+05        3.0400E+03
        4.2933E-08        0.0000E+00        1.7968E+05        2.9360E+03
        4.2714E-08        0.0000E+00        1.8550E+05        3.0230E+03
        4.2497E-08        0.0000E+00        1.8519E+05        3.0070E+03
        4.2281E-08        0.0000E+00        1.8745E+05        3.0430E+03
        4.2067E-08        0.0000E+00        1.9074E+05        3.0980E+03
        4.1855E-08        0.0000E+00        1.8641E+05        3.0230E+03
        4.1644E-08        0.0000E+00        1.8895E+05        3.0620E+03
        4.1435E-08        0.0000E+00        1.8930E+05        3.0810E+03
        4.1227E-08        0.0000E+00        1.9144E+05        3.1150E+03
        4.1021E-08        0.0000E+00        1.8900E+05        3.0780E+03
        4.0816E-08        0.0000E+00        1.9087E+05        3.1000E+03
        4.0613E-08        0.0000E+00        1.9093E+05        3.1090E+03
        4.0411E-08        0.0000E+00        1.9005E+05        3.0860E+03
        4.0211E-08        0.0000E+00        1.9479E+05        3.1550E+03
        4.0013E-08        0.0000E+00        1.9710E+05        3.2120E+03
        3.9816E-08        0.0000E+00        1.9114E+05        3.1040E+03
        3.9620E-08        0.0000E+00        1.9531E+05        3.1710E+03
        3.9426E-08        0.0000E+00        1.9497E+05        3.1780E+03
        3.9233E-08        0.0000E+00        1.9432E+05        3.1600E+03
        3.9042E-08        0.0000E+00        1.9759E+05        3.2060E+03
        3.8852E-08        0.0000E+00        2.0110E+05        3.2550E+03
        3.8663E-08        0.0000E+00        1.9847E+05        3.2100E+03
        3.8476E-08        0.0000E+00        2.0266E+05        3.2880E+03
        3.8290E-08        0.0000E+00        2.0278E+05        3.2940E+03
        3.8105E-08        0.0000E+00        2.0120E+05        3.2730E+03
        3.7922E-08        0.0000E+00        2.0070E+05        3.2650E+03
        3.7740E-08        0.0000E+00        1.9825E+05        3.2150E+03
        3.7560E-08        0.0000E+00        2.0276E+05        3.2840E+03
        3.7381E-08        0.0000E+00        2.0043E+05        3.2520E+03
        3.7203E-08        0.0000E+00        2.0584E+05        3.3510E+03
        3.7026E-08        0.0000E+00        2.0448E+05        3.3240E+03
        3.6850E-08        0.0000E+00        2.0588E+05        3.3400E+03
        3.6676E-08        0.0000E+00        2.0662E+05        3.3450E+03
        3.6503E-08        0.0000E+00        2.0802E+05        3.3760E+03
        3.6331E-08        0.0000E+00        2.0767E+05        3.3570E+03
        3.6161E-08        0.0000E+00        2.0819E+05        3.3670E+03
        3.5991E-08        0.0000E+00        2.0923E+05        3.3990E+03
        3.5823E-08        0.0000E+00        2.1104E+05        3.4280E+03
        3.5656E-08        0.0000E+00        2.0857E+05        3.3700E+03
        3.5490E-08        0.0000E+00        2.0919E+05        3.3680E+03
        3.5326E-08        0.0000E+00        2.1126E+05        3.3980E+03
        3.5162E-08        0.0000E+00        2.1365E+05        3.4490E+03
        3.5000E-08        0.0000E+00        2.1547E+05        3.4890E+03
        3.4838E-08        0.0000E+00        2.1158E+05        3.4250E+03
        3.4678E-08        0.0000E+00        2.0880E+05        3.3760E+03
        3.4519E-08        0.0000E+00        2.1569E+05        3.4880E+03
        3.4361E-08        0.0000E+00        2.1589E+05        3.5040E+03
        3.4204E-08        0.0000E+00        2.1803E+05        3.5440E+03
        3.4048E-08        0.0000E+00        2.1571E+05        3.4950E+03
        3.3894E-08        0.0000E+00        2.1565E+05        3.5150E+03
        3.3740E-08        0.0000E+00        2.1550E+05        3.4980E+03
        3.3587E-08        0.0000E+00        2.1859E+05        3.5540E+03
        3.3436E-08        0.0000E+00        2.1397E+05        3.4570E+03
        3.3285E-08        0.0000E+00        2.1697E+05        3.5010E+03
        3.3135E-08        0.0000E+00        2.1442E+05        3.4610E+03
        3.2987E-08        0.0000E+00        2.2115E+05        3.5690E+03
        3.2839E-08        0.0000E+00        2.2237E+05        3.6010E+03
        3.2693E-08        0.0000E+00        2.2161E+05        3.5860E+03
        3.2547E-08        0.0000E+00        2.1791E+05        3.5120E+03
        3.2402E-08        0.0000E+00        2.1988E+05        3.5340E+03
        3.2259E-08        0.0000E+00        2.2001E+05        3.5260E+03
        3.2116E-08        0.0000E+00        2.2264E+05        3.5610E+03
        3.1974E-08        0.0000E+00        2.2461E+05        3.5990E+03
        3.1833E-08        0.0000E+00        2.2611E+05        3.6350E+03
        3.1693E-08        0.0000E+00        2.2296E+05        3.5880E+03
        3.1554E-08        0.0000E+00        2.2619E+05        3.6650E+03
        3.1416E-08        0.0000E+00        2.2509E+05        3.6430E+03
        3.1279E-08        0.0000E+00        2.2246E+05        3.5870E+03
        3.1143E-08        0.0000E+00        2.2122E+05        3.5490E+03
        3.1007E-08        0.0000E+00        2.2718E+05        3.6340E+03
        3.0873E-08        0.0000E+00        2.2838E+05        3.6710E+03
        3.0739E-08        0.0000E+00        2.2506E+05        3.6070E+03
        3.0606E-08        0.0000E+00        2.2963E+05        3.6830E+03
        3.0475E-08        0.0000E+00        2.3100E+05        3.7150E+03
        3.0343E-08        0.0000E+00        2.2502E+05        3.6010E+03
        3.0213E-08        0.0000E+00        2.2682E+05        3.6260E+03
        3.0084E-08        0.0000E+00        2.3006E+05        3.6820E+03
        2.9955E-08        0.0000E+00        2.2988E+05        3.6820E+03
        2.9828E-08        0.0000E+00        2.3195E+05        3.7240E+03
        2.9701E-08        0.0000E+00        2.2778E+05        3.6310E+03
        2.9574E-08        0.0000E+00        2.2867E+05        3.6370E+03
        2.9449E-08        0.0000E+00        2.3250E+05        3.6990E+03
        2.9325E-08        0.0000E+00        2.3103E+05        3.6740E+03
        2.9201E-08        0.0000E+00        2.3528E+05        3.7440E+03
        2.9078E-08        0.0000E+00        2.3072E+05        3.6700E+03
        2.8956E-08        0.0000E+00        2.2839E+05        3.6070E+03
        2.8834E-08        0.0000E+00        2.3325E+05        3.6780E+03
        2.8714E-08        0.0000E+00        2.3252E+05        3.6650E+03
        2.8594E-08        0.0000E+00        2.3452E+05        3.7030E+03
        2.8475E-08        0.0000E+00        2.3637E+05        3.7440E+03
        2.8356E-08        0.0000E+00        2.3657E+05        3.7410E+03
        2.8239E-08        0.0000E+00        2.4044E+05        3.8200E+03
        2.8122E-08        0.0000E+00        2.3504E+05        3.7250E+03
        2.8006E-08        0.0000E+00        2.3385E+05        3.7000E+03
        2.7890E-08        0.0000E+00        2.3552E+05        3.7240E+03
        2.7775E-08        0.0000E+00        2.3841E+05        3.7580E+03
        2.7661E-08        0.0000E+00        2.3559E+05        3.7130E+03
        2.7548E-08        0.0000E+00        2.4015E+05        3.7950E+03
        2.7435E-08        0.0000E+00        2.3682E+05        3.7390E+03
        2.7323E-08        0.0000E+00        2.3939E+05        3.7860E+03
        2.7212E-08        0.0000E+00        2.3262E+05        3.6680E+03
        2.7101E-08        0.0000E+00        2.4270E+05        3.8340E+03
        2.6991E-08        0.0000E+00        2.3896E+05        3.7700E+03
        2.6882E-08        0.0000E+00        2.3665E+05        3.7190E+03
        2.6773E-08        0.0000E+00        2.4105E+05        3.7940E+03
        2.6665E-08        0.0000E+00        2.3928E+05        3.7630E+03
        2.6558E-08        0.0000E+00        2.4394E+05        3.8440E+03
        2.6452E-08        0.0000E+00        2.3620E+05        3.7120E+03
        2.6345E-08        0.0000E+00        2.4112E+05        3.7820E+03
        2.6240E-08        0.0000E+00        2.4408E+05        3.8430E+03
        2.6135E-08        0.0000E+00        2.4296E+05        3.8210E+03
        2.6031E-08        0.0000E+00        2.4260E+05        3.8080E+03
        2.5928E-08        0.0000E+00        2.4041E+05        3.7660E+03
        2.5825E-08        0.0000E+00        2.4567E+05        3.8500E+03
        2.5723E-08        0.0000E+00        2.4652E+05        3.8710E+03
        2.5621E-08        0.0000E+00        2.4476E+05        3.8370E+03
        2.5520E-08        0.0000E+00        2.4279E+05        3.8000E+03
        2.5419E-08        0.0000E+00        2.4485E+05        3.8270E+03
        2.5319E-08        0.0000E+00        2.4802E+05        3.9040E+03
        2.5220E-08        0.0000E+00        2.4312E+05        3.8160E+03
        2.5121E-08        0.0000E+00        2.4574E+05        3.8520E+03
        2.5023E-08        0.0000E+00        2.4823E+05        3.8950E+03
        2.4926E-08        0.0000E+00        2.4780E+05        3.9030E+03
        2.4829E-08        0.0000E+00        2.4685E+05        3.8900E+03
        2.4732E-08        0.0000E+00        2.4303E+05        3.8130E+03
        2.4637E-08        0.0000E+00        2.4568E+05        3.8380E+03
        2.4541E-08        0.0000E+00        2.5095E+05        3.9100E+03
        2.4446E-08        0.0000E+00        2.5156E+05        3.9310E+03
        2.4352E-08        0.0000E+00        2.4864E+05        3.8800E+03
        2.4259E-08        0.0000E+00        2.4715E+05        3.8470E+03
        2.4165E-08        0.0000E+00        2.4517E+05        3.8020E+03
        2.4073E-08        0.0000E+00        2.5390E+05        3.9420E+03
        2.3981E-08        0.0000E+00        2.5634E+05        3.9940E+03
        2.3889E-08        0.0000E+00        2.5196E+05        3.9230E+03
        2.3798E-08        0.0000E+00        2.4845E+05        3.8630E+03
        2.3708E-08        0.0000E+00        2.4708E+05        3.8260E+03
        2.3618E-08        0.0000E+00        2.4671E+05        3.8020E+03
        2.3528E-08        0.0000E+00        2.5382E+05        3.9200E+03
        2.3439E-08        0.0000E+00        2.5255E+05        3.9020E+03
        2.3351E-08        0.0000E+00        2.5181E+05        3.8820E+03
        2.3263E-08        0.0000E+00        2.5416E+05        3.9240E+03
        2.3176E-08        0.0000E+00        2.5264E+05        3.9090E+03
        2.3089E-08        0.0000E+00        2.5110E+05        3.8730E+03
        2.3002E-08        0.0000E+00        2.5646E+05        3.9580E+03
        2.2916E-08        0.0000E+00        2.5696E+05        3.9780E+03
        2.2831E-08        0.0000E+00        2.5108E+05        3.8790E+03
        2.2746E-08        0.0000E+00        2.5486E+05        3.9280E+03
        2.2661E-08        0.0000E+00        2.5654E+05        3.9630E+03
        2.2577E-08        0.0000E+00        2.5212E+05        3.8830E+03
        2.2493E-08        0.0000E+00        2.5555E+05        3.9400E+03
        2.2410E-08        0.0000E+00        2.6037E+05        4.0230E+03
        2.2327E-08        0.0000E+00        2.5661E+05        3.9640E+03
        2.2245E-08        0.0000E+00        2.5264E+05        3.8900E+03
        2.2163E-08        0.0000E+00        2.5622E+05        3.9380E+03
        2.2082E-08        0.0000E+00        2.5346E+05        3.8850E+03
        2.2001E-08        0.0000E+00        2.6005E+05        3.9890E+03
        2.1921E-08        0.0000E+00        2.6638E+05        4.1100E+03
        2.1841E-08        0.0000E+00        2.5544E+05        3.9340E+03
        2.1761E-08        0.0000E+00        2.5808E+05        3.9740E+03
        2.1682E-08        0.0000E+00        2.5662E+05        3.9390E+03
        2.1603E-08        0.0000E+00        2.5414E+05        3.8870E+03
        2.1525E-08        0.0000E+00        2.5912E+05        3.9640E+03
        2.1447E-08        0.0000E+00        2.6218E+05        4.0140E+03
        2.1370E-08        0.0000E+00        2.6407E+05        4.0530E+03
        2.1293E-08        0.0000E+00        2.5915E+05        3.9730E+03
        2.1216E-08        0.0000E+00        2.6013E+05        3.9830E+03
        2.1140E-08        0.0000E+00        2.6272E+05        4.0260E+03
        2.1064E-08        0.0000E+00        2.6216E+05        4.0200E+03
        2.0989E-08        0.0000E+00        2.6196E+05        4.0120E+03
        2.0914E-08        0.0000E+00        2.7045E+05        4.1660E+03
        2.0839E-08        0.0000E+00        2.6309E+05        4.0530E+03
        2.0765E-08        0.0000E+00        2.5862E+05        3.9630E+03
        2.0691E-08        0.0000E+00        2.5747E+05        3.9300E+03
        2.0618E-08        0.0000E+00        2.6162E+05        3.9950E+03
        2.0545E-08        0.0000E+00        2.6460E+05        4.0470E+03
        2.0473E-08        0.0000E+00        2.5775E+05        3.9260E+03
        2.0400E-08        0.0000E+00        2.6354E+05        4.0160E+03
        2.0328E-08        0.0000E+00        2.6419E+05        4.0270E+03
        2.0257E-08        0.0000E+00        2.6351E+05        4.0110E+03
        2.0186E-08        0.0000E+00        2.5982E+05        3.9420E+03
        2.0115E-08        0.0000E+00        2.6338E+05        3.9940E+03
        2.0045E-08        0.0000E+00        2.6467E+05        4.0130E+03
        1.9975E-08        0.0000E+00        2.6549E+05        4.0240E+03
        1.9905E-08        0.0000E+00        2.6810E+05        4.0680E+03
        1.9836E-08        0.0000E+00        2.6522E+05        4.0210E+03
        1.9767E-08        0.0000E+00        2.6320E+05        3.9830E+03
        1.9699E-08        0.0000E+00        2.6431E+05        3.9960E+03
        1.9631E-08        0.0000E+00        2.6646E+05        4.0300E+03
        1.9563E-08        0.0000E+00        2.6903E+05        4.0710E+03
        1.9495E-08        0.0000E+00        2.6490E+05        4.0010E+03
        1.9428E-08        0.0000E+00        2.7085E+05        4.0940E+03
        1.9361E-08        0.0000E+00        2.7101E+05        4.1010E+03
        1.9295E-08        0.0000E+00        2.7085E+05        4.1070E+03
        1.9229E-08        0.0000E+00        2.7085E+05        4.1090E+03
        1.9163E-08        0.0000E+00        2.7024E+05        4.1030E+03
        1.9098E-08        0.0000E+00        2.6493E+05        4.0070E+03
        1.9033E-08        0.0000E+00        2.6568E+05        4.0100E+03
        1.8968E-08        0.0000E+00        2.6549E+05        4.0010E+03
        1.8904E-08        0.0000E+00        2.7181E+05        4.1000E+03
        1.8839E-08        0.0000E+00        2.7084E+05        4.0860E+03
        1.8776E-08        0.0000E+00        2.7611E+05        4.1750E+03
        1.8712E-08        0.0000E+00        2.7059E+05        4.0840E+03
        1.8649E-08        0.0000E+00        2.7277E+05        4.1220E+03
        1.8586E-08        0.0000E+00        2.6988E+05        4.0760E+03
        1.8524E-08        0.0000E+00        2.7279E+05        4.1230E+03
        1.8462E-08        0.0000E+00        2.6659E+05        4.0140E+03
        1.8400E-08        0.0000E+00        2.6723E+05        4.0150E+03
        1.8338E-08        0.0000E+00        2.7065E+05        4.0670E+03
        1.8277E-08        0.0000E+00        2.7283E+05        4.1010E+03
        1.8216E-08        0.0000E+00        2.7547E+05        4.1440E+03
        1.8156E-08        0.0000E+00        2.7734E+05        4.1810E+03
        1.8095E-08        0.0000E+00        2.7873E+05        4.2070E+03
        1.8035E-08        0.0000E+00        2.7162E+05        4.0890E+03
        1.7976E-08        0.0000E+00        2.7212E+05        4.0910E+03
        1.7916E-08        0.0000E+00        2.7809E+05        4.1920E+03
        1.7857E-08        0.0000E+00        2.7135E+05        4.0840E+03
        1.7798E-08        0.0000E+00        2.7201E+05        4.0910E+03
        1.7740E-08        0.0000E+00        2.7466E+05        4.1300E+03
        1.7681E-08        0.0000E+00        2.7290E+05        4.0970E+03
        1.7623E-08        0.0000E+00        2.7171E+05        4.0710E+03
        1.7566E-08        0.0000E+00        2.7744E+05        4.1630E+03
        1.7508E-08        0.0000E+00        2.7387E+05        4.1040E+03
        1.7451E-08        0.0000E+00        2.7018E+05        4.0380E+03
        1.7394E-08        0.0000E+00        2.8229E+05        4.2360E+03
        1.7338E-08        0.0000E+00        2.7471E+05        4.1130E+03
        1.7281E-08        0.0000E+00        2.7479E+05        4.1110E+03
        1.7225E-08        0.0000E+00        2.7670E+05        4.1400E+03
        1.7170E-08        0.0000E+00        2.7919E+05        4.1790E+03
        1.7114E-08        0.0000E+00        2.7378E+05        4.0860E+03
        1.7059E-08        0.0000E+00        2.7563E+05        4.1130E+03
        1.7004E-08        0.0000E+00        2.8076E+05        4.1980E+03
        1.6949E-08        0.0000E+00        2.8034E+05        4.1940E+03
        1.6895E-08        0.0000E+00        2.7214E+05        4.0570E+03
        1.6841E-08        0.0000E+00        2.7768E+05        4.1420E+03
        1.6787E-08        0.0000E+00        2.7923E+05        4.1650E+03
        1.6733E-08        0.0000E+00        2.7998E+05        4.1760E+03
        1.6680E-08        0.0000E+00        2.8742E+05        4.3030E+03
        1.6627E-08        0.0000E+00        2.8413E+05        4.2550E+03
        1.6574E-08        0.0000E+00        2.8167E+05        4.2160E+03
        1.6521E-08        0.0000E+00        2.7782E+05        4.1510E+03
        1.6469E-08        0.0000E+00        2.7805E+05        4.1480E+03
        1.6417E-08        0.0000E+00        2.7960E+05        4.1700E+03
        1.6365E-08        0.0000E+00        2.8052E+05        4.1820E+03
        1.6313E-08        0.0000E+00        2.7825E+05        4.1410E+03
        1.6262E-08        0.0000E+00        2.8506E+05        4.2500E+03
        1.6211E-08        0.0000E+00        2.8470E+05        4.2470E+03
        1.6160E-08        0.0000E+00        2.8599E+05        4.2690E+03
        1.6109E-08        0.0000E+00        2.8328E+05        4.2220E+03
        1.6059E-08        0.0000E+00        2.8543E+05        4.2570E+03
        1.6009E-08        0.0000E+00        2.8407E+05        4.2350E+03
        1.5959E-08        0.0000E+00        2.8440E+05        4.2410E+03
        1.5909E-08        0.0000E+00        2.8232E+05        4.2040E+03
        1.5860E-08        0.0000E+00        2.8066E+05        4.1740E+03
        1.5810E-08        0.0000E+00        2.8455E+05        4.2340E+03
        1.5761E-08        0.0000E+00        2.8474E+05        4.2370E+03
        1.5712E-08        0.0000E+00        2.8278E+05        4.2050E+03
        1.5664E-08        0.0000E+00        2.8392E+05        4.2220E+03
        1.5616E-08        0.0000E+00        2.8558E+05        4.2480E+03
        1.5567E-08        0.0000E+00        2.8929E+05        4.3090E+03
        1.5520E-08        0.0000E+00        2.8762E+05        4.2830E+03
        1.5472E-08        0.0000E+00        2.8478E+05        4.2350E+03
        1.5424E-08        0.0000E+00        2.8530E+05        4.2420E+03
        1.5377E-08        0.0000E+00        2.8628E+05        4.2570E+03
        1.5330E-08        0.0000E+00        2.8552E+05        4.2430E+03
        1.5283E-08        0.0000E+00        2.8518E+05        4.2360E+03
        1.5237E-08        0.0000E+00        2.9110E+05        4.3340E+03
        1.5190E-08        0.0000E+00        2.8981E+05        4.3140E+03
        1.5144E-08        0.0000E+00        2.8548E+05        4.2430E+03
        1.5098E-08        0.0000E+00        2.8461E+05        4.2260E+03
        1.5052E-08        0.0000E+00        2.8961E+05        4.3070E+03
        1.5007E-08        0.0000E+00        2.9606E+05        4.4160E+03
        1.4962E-08        0.0000E+00        2.8662E+05        4.2620E+03
        1.4916E-08        0.0000E+00        2.8404E+05        4.2180E+03
        1.4871E-08        0.0000E+00        2.8329E+05        4.2020E+03
        1.4827E-08        0.0000E+00        2.8704E+05        4.2620E+03
        1.4782E-08        0.0000E+00        2.8923E+05        4.2970E+03
        1.4738E-08        0.0000E+00        2.9227E+05        4.3480E+03
        1.4694E-08        0.0000E+00        2.9322E+05        4.3640E+03
        1.4650E-08        0.0000E+00        2.9253E+05        4.3530E+03
        1.4606E-08        0.0000E+00        2.8676E+05        4.2580E+03
        1.4563E-08        0.0000E+00        2.9004E+05        4.3100E+03
        1.4519E-08        0.0000E+00        2.9150E+05        4.3350E+03
        1.4476E-08        0.0000E+00        2.9040E+05        4.3170E+03
        1.4433E-08        0.0000E+00        2.8655E+05        4.2520E+03
        1.4390E-08        0.0000E+00        2.8605E+05        4.2420E+03
        1.4348E-08        0.0000E+00        2.8732E+05        4.2620E+03
        1.4305E-08        0.0000E+00        2.9096E+05        4.3200E+03
        1.4263E-08        0.0000E+00        2.9033E+05        4.3090E+03
        1.4221E-08        0.0000E+00        2.9226E+05        4.3410E+03
        1.4179E-08        0.0000E+00        2.9450E+05        4.3780E+03
        1.4138E-08        0.0000E+00        2.9595E+05        4.4020E+03
        1.4096E-08        0.0000E+00        2.9214E+05        4.3390E+03
        1.4055E-08        0.0000E+00        2.9596E+05        4.4020E+03
        1.4014E-08        0.0000E+00        2.9359E+05        4.3630E+03
        1.3973E-08        0.0000E+00        2.9383E+05        4.3660E+03
        1.3932E-08        0.0000E+00        2.9077E+05        4.3160E+03
        1.3892E-08        0.0000E+00        2.9583E+05        4.3990E+03
        1.3851E-08        0.0000E+00        2.9644E+05        4.4090E+03
        1.3811E-08        0.0000E+00        2.9709E+05        4.4200E+03
        1.3771E-08        0.0000E+00        2.9704E+05        4.4190E+03
        1.3731E-08        0.0000E+00        2.9157E+05        4.3290E+03
        1.3692E-08        0.0000E+00        2.9348E+05        4.3600E+03
        1.3652E-08        0.0000E+00        2.9266E+05        4.3460E+03
        1.3613E-08        0.0000E+00        2.9550E+05        4.3930E+03
        1.3574E-08        0.0000E+00        3.0026E+05        4.4710E+03
        1.3535E-08        0.0000E+00        2.9882E+05        4.4480E+03
        1.3496E-08        0.0000E+00        2.9598E+05        4.4010E+03
        1.3457E-08        0.0000E+00        2.9759E+05        4.4270E+03
        1.3418E-08        0.0000E+00        2.9494E+05        4.3840E+03
        1.3380E-08        0.0000E+00        2.9616E+05        4.4040E+03
        1.3342E-08        0.0000E+00        2.9853E+05        4.4430E+03
        1.3304E-08        0.0000E+00        2.9841E+05        4.4410E+03
        1.3266E-08        0.0000E+00        3.0143E+05        4.4910E+03
        1.3228E-08        0.0000E+00        3.0021E+05        4.4710E+03
        1.3191E-08        0.0000E+00        3.0148E+05        4.4920E+03
        1.3154E-08        0.0000E+00        3.0133E+05        4.4890E+03
        1.3116E-08        0.0000E+00        2.9849E+05        4.4420E+03
        1.3079E-08        0.0000E+00        2.9805E+05        4.4350E+03
        1.3042E-08        0.0000E+00        3.0050E+05        4.4760E+03
        1.3006E-08        0.0000E+00        3.0342E+05        4.5240E+03
        1.2969E-08        0.0000E+00        3.0222E+05        4.5040E+03
        1.2933E-08        0.0000E+00        3.0034E+05        4.4730E+03
        1.2896E-08        0.0000E+00        2.9927E+05        4.4550E+03
        1.2860E-08        0.0000E+00        2.9777E+05        4.4310E+03
        1.2824E-08        0.0000E+00        2.9801E+05        4.4350E+03
        1.2788E-08        0.0000E+00        3.0153E+05        4.4940E+03
        1.2753E-08        0.0000E+00        3.0469E+05        4.5460E+03
        1.2717E-08        0.0000E+00        3.0515E+05        4.5540E+03
        1.2682E-08        0.0000E+00        3.0476E+05        4.5470E+03
        1.2647E-08        0.0000E+00        3.0522E+05        4.5540E+03
        1.2612E-08        0.0000E+00        3.0634E+05        4.5730E+03
        1.2577E-08        0.0000E+00        3.0234E+05        4.5060E+03
        1.2542E-08        0.0000E+00        3.0419E+05        4.5370E+03
        1.2507E-08        0.0000E+00        3.0021E+05        4.4710E+03
        1.2473E-08        0.0000E+00        3.0363E+05        4.5290E+03
        1.2438E-08        0.0000E+00        3.0871E+05        4.6140E+03
        1.2404E-08        0.0000E+00        3.0721E+05        4.5880E+03
        1.2370E-08        0.0000E+00        3.0781E+05        4.5980E+03
        1.2336E-08        0.0000E+00        3.0416E+05        4.5370E+03
        1.2302E-08        0.0000E+00        3.0732E+05        4.5900E+03
        1.2269E-08        0.0000E+00        3.0900E+05        4.6170E+03
        1.2235E-08        0.0000E+00        3.1106E+05        4.6520E+03
        1.2202E-08        0.0000E+00        3.0912E+05        4.6200E+03
        1.2168E-08        0.0000E+00        3.0558E+05        4.5600E+03
        1.2135E-08        0.0000E+00        3.0381E+05        4.5310E+03
        1.2102E-08        0.0000E+00        3.0387E+05        4.5330E+03
        1.2070E-08        0.0000E+00        3.0204E+05        4.5030E+03
        1.2037E-08        0.0000E+00        3.0582E+05        4.5660E+03
        1.2004E-08        0.0000E+00        3.0555E+05        4.5620E+03
        1.1972E-08        0.0000E+00        3.1023E+05        4.6400E+03
        1.1940E-08        0.0000E+00        3.1444E+05        4.7100E+03
        1.1907E-08        0.0000E+00        3.1084E+05        4.6490E+03
        1.1875E-08        0.0000E+00        3.0856E+05        4.6110E+03
        1.1843E-08        0.0000E+00        3.0838E+05        4.6080E+03
        1.1812E-08        0.0000E+00        3.0815E+05        4.6040E+03
        1.1780E-08        0.0000E+00        3.0603E+05        4.5690E+03
        1.1748E-08        0.0000E+00        3.0981E+05        4.6330E+03
        1.1717E-08        0.0000E+00        3.1314E+05        4.6890E+03
        1.1686E-08        0.0000E+00        3.1080E+05        4.6490E+03
        1.1654E-08        0.0000E+00        3.0768E+05        4.5970E+03
        1.1623E-08        0.0000E+00        3.0947E+05        4.6280E+03
        1.1593E-08        0.0000E+00        3.1032E+05        4.6430E+03
        1.1562E-08        0.0000E+00        3.1371E+05        4.7000E+03
        1.1531E-08        0.0000E+00        3.1415E+05        4.7070E+03
        1.1501E-08        0.0000E+00        3.1349E+05        4.6960E+03
        1.1470E-08        0.0000E+00        3.1242E+05        4.6770E+03
        1.1440E-08        0.0000E+00        3.1177E+05        4.6660E+03
        1.1410E-08        0.0000E+00        3.1465E+05        4.7130E+03
        1.1380E-08        0.0000E+00        3.1268E+05        4.6800E+03
        1.1350E-08        0.0000E+00        3.1180E+05        4.6660E+03
        1.1320E-08        0.0000E+00        3.0941E+05        4.6260E+03
        1.1290E-08        0.0000E+00        3.1156E+05        4.6630E+03
        1.1260E-08        0.0000E+00        3.1672E+05        4.7500E+03
        1.1231E-08        0.0000E+00        3.1653E+05        4.7460E+03
        1.1202E-08        0.0000E+00        3.1610E+05        4.7390E+03
        1.1172E-08        0.0000E+00        3.1644E+05        4.7440E+03
        1.1143E-08        0.0000E+00        3.1913E+05        4.7890E+03
        1.1114E-08        0.0000E+00        3.1351E+05        4.6940E+03
        1.1085E-08        0.0000E+00        3.1326E+05        4.6900E+03
        1.1057E-08        0.0000E+00        3.1521E+05        4.7230E+03
        1.1028E-08        0.0000E+00        3.1781E+05        4.7670E+03
        1.0999E-08        0.0000E+00        3.1809E+05        4.7720E+03
        1.0971E-08        0.0000E+00        3.1822E+05        4.7740E+03
        1.0942E-08        0.0000E+00        3.1729E+05        4.7590E+03
        1.0914E-08        0.0000E+00        3.1893E+05        4.7860E+03
        1.0886E-08        0.0000E+00        3.1676E+05        4.7490E+03
        1.0858E-08        0.0000E+00        3.1880E+05        4.7840E+03
        1.0830E-08        0.0000E+00        3.1873E+05        4.7830E+03
        1.0802E-08        0.0000E+00        3.2260E+05        4.8480E+03
        1.0775E-08        0.0000E+00        3.2408E+05        4.8720E+03
        1.0747E-08        0.0000E+00        3.2020E+05        4.8060E+03
        1.0720E-08        0.0000E+00        3.1805E+05        4.7700E+03
        1.0692E-08        0.0000E+00        3.1956E+05        4.7960E+03
        1.0665E-08        0.0000E+00        3.1724E+05        4.7560E+03
        1.0638E-08        0.0000E+00        3.1922E+05        4.7900E+03
        1.0611E-08        0.0000E+00        3.1955E+05        4.7960E+03
        1.0584E-08        0.0000E+00        3.2139E+05        4.8270E+03
        1.0557E-08        0.0000E+00        3.1960E+05        4.7970E+03
        1.0530E-08        0.0000E+00        3.1898E+05        4.7860E+03
        1.0503E-08        0.0000E+00        3.2130E+05        4.8260E+03
        1.0477E-08        0.0000E+00        3.2236E+05        4.8440E+03
        1.0450E-08        0.0000E+00        3.2620E+05        4.9090E+03
        1.0424E-08        0.0000E+00        3.2386E+05        4.8680E+03
        1.0398E-08        0.0000E+00        3.2107E+05        4.8210E+03
        1.0372E-08        0.0000E+00        3.2336E+05        4.8600E+03
        1.0346E-08        0.0000E+00        3.2755E+05        4.9310E+03
        1.0320E-08        0.0000E+00        3.2893E+05        4.9540E+03
        1.0294E-08        0.0000E+00        3.2632E+05        4.9090E+03
        1.0268E-08        0.0000E+00        3.2278E+05        4.8500E+03
        1.0242E-08        0.0000E+00        3.1776E+05        4.7650E+03
        1.0217E-08        0.0000E+00        3.1993E+05        4.8020E+03
        1.0191E-08        0.0000E+00        3.2704E+05        4.9230E+03
        1.0166E-08        0.0000E+00        3.2953E+05        4.9650E+03
        1.0141E-08        0.0000E+00        3.2551E+05        4.8960E+03
        1.0115E-08        0.0000E+00        3.2685E+05        4.9180E+03
        1.0090E-08        0.0000E+00        3.2495E+05        4.8860E+03
        1.0065E-08        0.0000E+00        3.2391E+05        4.8680E+03
        1.0040E-08        0.0000E+00        3.2302E+05        4.8530E+03
        1.0016E-08        0.0000E+00        3.2636E+05        4.9110E+03
        9.9910E-09        0.0000E+00        3.2697E+05        4.9210E+03
        9.9660E-09        0.0000E+00        3.2499E+05        4.8880E+03
        9.9420E-09        0.0000E+00        3.2067E+05        4.8140E+03
        9.9170E-09        0.0000E+00        3.2361E+05        4.8650E+03
        9.8930E-09        0.0000E+00        3.2669E+05        4.9180E+03
        9.8690E-09        0.0000E+00        3.3015E+05        4.9770E+03
        9.8440E-09        0.0000E+00        3.2667E+05        4.9180E+03
        9.8200E-09        0.0000E+00        3.2457E+05        4.8820E+03
        9.7960E-09        0.0000E+00        3.2584E+05        4.9040E+03
        9.7720E-09        0.0000E+00        3.2651E+05        4.9160E+03
        9.7490E-09        0.0000E+00        3.2984E+05        4.9730E+03
        9.7250E-09        0.0000E+00        3.2689E+05        4.9220E+03
        9.7010E-09        0.0000E+00        3.2950E+05        4.9670E+03
        9.6780E-09        0.0000E+00        3.3428E+05        5.0480E+03
        9.6540E-09        0.0000E+00        3.2943E+05        4.9640E+03
        9.6310E-09        0.0000E+00        3.3173E+05        5.0040E+03
        9.6070E-09        0.0000E+00        3.2997E+05        4.9730E+03
        9.5840E-09        0.0000E+00        3.3064E+05        4.9850E+03
        9.5610E-09        0.0000E+00        3.3009E+05        4.9750E+03
        9.5380E-09        0.0000E+00        3.2991E+05        4.9730E+03
        9.5150E-09        0.0000E+00        3.2708E+05        4.9250E+03
        9.4920E-09        0.0000E+00        3.2742E+05        4.9310E+03
        9.4690E-09        0.0000E+00        3.2924E+05        4.9630E+03
        9.4460E-09        0.0000E+00        3.3014E+05        4.9780E+03
        9.4240E-09        0.0000E+00        3.3558E+05        5.0720E+03
        9.4010E-09        0.0000E+00        3.3592E+05        5.0760E+03
        9.3790E-09        0.0000E+00        3.3232E+05        5.0150E+03
        9.3560E-09        0.0000E+00        3.3345E+05        5.0340E+03
        9.3340E-09        0.0000E+00        3.3320E+05        5.0300E+03
        9.3120E-09        0.0000E+00        3.3690E+05        5.0930E+03
        9.2900E-09        0.0000E+00        3.3815E+05        5.1150E+03
        9.2670E-09        0.0000E+00        3.3404E+05        5.0440E+03
        9.2450E-09        0.0000E+00        3.3243E+05        5.0160E+03
        9.2240E-09        0.0000E+00        3.3289E+05        5.0240E+03
        9.2020E-09        0.0000E+00        3.3190E+05        5.0080E+03
        9.1800E-09        0.0000E+00        3.2946E+05        4.9660E+03
        9.1580E-09        0.0000E+00        3.3089E+05        4.9930E+03
        9.1370E-09        0.0000E+00        3.3262E+05        5.0240E+03
        9.1150E-09        0.0000E+00        3.3398E+05        5.0480E+03
        9.0940E-09        0.0000E+00        3.3594E+05        5.0820E+03
        9.0720E-09        0.0000E+00        3.3248E+05        5.0230E+03
        9.0510E-09        0.0000E+00        3.3429E+05        5.0550E+03
        9.0300E-09        0.0000E+00        3.3606E+05        5.0870E+03
        9.0080E-09        0.0000E+00        3.3823E+05        5.1240E+03
        8.9870E-09        0.0000E+00        3.3511E+05        5.0700E+03
        8.9660E-09        0.0000E+00        3.3895E+05        5.1370E+03
        8.9450E-09        0.0000E+00        3.3812E+05        5.1210E+03
        8.9240E-09        0.0000E+00        3.3924E+05        5.1400E+03
        8.9040E-09        0.0000E+00        3.3824E+05        5.1230E+03
        8.8830E-09        0.0000E+00        3.3972E+05        5.1480E+03
        8.8620E-09        0.0000E+00        3.4140E+05        5.1770E+03
        8.8420E-09        0.0000E+00        3.4016E+05        5.1550E+03
        8.8210E-09        0.0000E+00        3.4161E+05        5.1800E+03
        8.8010E-09        0.0000E+00        3.4107E+05        5.1700E+03
        8.7800E-09        0.0000E+00        3.4077E+05        5.1640E+03
        8.7600E-09        0.0000E+00        3.4238E+05        5.1920E+03
        8.7400E-09        0.0000E+00        3.4143E+05        5.1750E+03
        8.7200E-09        0.0000E+00        3.3977E+05        5.1460E+03
        8.7000E-09        0.0000E+00        3.3897E+05        5.1330E+03
        8.6800E-09        0.0000E+00        3.4168E+05        5.1800E+03
        8.6600E-09        0.0000E+00        3.4161E+05        5.1790E+03
        8.6400E-09        0.0000E+00        3.4270E+05        5.1980E+03
        8.6200E-09        0.0000E+00        3.4397E+05        5.2200E+03
        8.6000E-09        0.0000E+00        3.4427E+05        5.2260E+03
        8.5800E-09        0.0000E+00        3.4561E+05        5.2490E+03
        8.5610E-09        0.0000E+00        3.4593E+05        5.2530E+03
        8.5410E-09        0.0000E+00        3.4423E+05        5.2230E+03
        8.5220E-09        0.0000E+00        3.3898E+05        5.1320E+03
        8.5020E-09        0.0000E+00        3.4172E+05        5.1800E+03
        8.4830E-09        0.0000E+00        3.4396E+05        5.2190E+03
        8.4640E-09        0.0000E+00        3.4559E+05        5.2480E+03
        8.4450E-09        0.0000E+00        3.4644E+05        5.2620E+03
        8.4250E-09        0.0000E+00        3.4682E+05        5.2690E+03
        8.4060E-09        0.0000E+00        3.4319E+05        5.2050E+03
        8.3870E-09        0.0000E+00        3.4844E+05        5.2970E+03
        8.3680E-09        0.0000E+00        3.4777E+05        5.2850E+03
        8.3490E-09        0.0000E+00        3.4620E+05        5.2570E+03
        8.3310E-09        0.0000E+00        3.4682E+05        5.2680E+03
        8.3120E-09        0.0000E+00        3.4891E+05        5.3040E+03
        8.2930E-09        0.0000E+00        3.4858E+05        5.2990E+03
        8.2750E-09        0.0000E+00        3.4914E+05        5.3080E+03
        8.2560E-09        0.0000E+00        3.4657E+05        5.2630E+03
        8.2370E-09        0.0000E+00        3.5250E+05        5.3670E+03
        8.2190E-09        0.0000E+00        3.5159E+05        5.3500E+03
        8.2010E-09        0.0000E+00        3.5184E+05        5.3530E+03
        8.1820E-09        0.0000E+00        3.5287E+05        5.3710E+03
        8.1640E-09        0.0000E+00        3.4937E+05        5.3100E+03
        8.1460E-09        0.0000E+00        3.4844E+05        5.2930E+03
        8.1280E-09        0.0000E+00        3.4804E+05        5.2860E+03
        8.1100E-09        0.0000E+00        3.4631E+05        5.2560E+03
        8.0920E-09        0.0000E+00        3.4882E+05        5.3010E+03
        8.0740E-09        0.0000E+00        3.5353E+05        5.3830E+03
        8.0560E-09        0.0000E+00        3.5024E+05        5.3250E+03
        8.0380E-09        0.0000E+00        3.4856E+05        5.2960E+03
        8.0200E-09        0.0000E+00        3.5008E+05        5.3220E+03
        8.0020E-09        0.0000E+00        3.4806E+05        5.2870E+03
        7.9850E-09        0.0000E+00        3.5004E+05        5.3210E+03
        7.9670E-09        0.0000E+00        3.5170E+05        5.3510E+03
        7.9500E-09        0.0000E+00        3.4990E+05        5.3190E+03
        7.9320E-09        0.0000E+00        3.5329E+05        5.3800E+03
        7.9150E-09        0.0000E+00        3.5273E+05        5.3700E+03
        7.8970E-09        0.0000E+00        3.5119E+05        5.3420E+03
        7.8800E-09        0.0000E+00        3.5282E+05        5.3710E+03
        7.8630E-09        0.0000E+00        3.5281E+05        5.3710E+03
        7.8450E-09        0.0000E+00        3.5377E+05        5.3870E+03
        7.8280E-09        0.0000E+00        3.5223E+05        5.3600E+03
        7.8110E-09        0.0000E+00        3.5325E+05        5.3780E+03
        7.7940E-09        0.0000E+00        3.5520E+05        5.4120E+03
        7.7770E-09        0.0000E+00        3.5651E+05        5.4360E+03
        7.7600E-09        0.0000E+00        3.5417E+05        5.3940E+03
        7.7430E-09        0.0000E+00        3.5694E+05        5.4430E+03
        7.7270E-09        0.0000E+00        3.5732E+05        5.4490E+03
        7.7100E-09        0.0000E+00        3.6214E+05        5.5350E+03
        7.6930E-09        0.0000E+00        3.6105E+05        5.5140E+03
        7.6760E-09        0.0000E+00        3.5853E+05        5.4700E+03
        7.6600E-09        0.0000E+00        3.5463E+05        5.4010E+03
        7.6430E-09        0.0000E+00        3.5705E+05        5.4450E+03
        7.6270E-09        0.0000E+00        3.5529E+05        5.4130E+03
        7.6100E-09        0.0000E+00        3.5484E+05        5.4050E+03
        7.5940E-09        0.0000E+00        3.5944E+05        5.4860E+03
        7.5780E-09        0.0000E+00        3.5952E+05        5.4870E+03
        7.5610E-09        0.0000E+00        3.5890E+05        5.4760E+03
        7.5450E-09        0.0000E+00        3.6002E+05        5.4970E+03
        7.5290E-09        0.0000E+00        3.6085E+05        5.5110E+03
        7.5130E-09        0.0000E+00        3.5967E+05        5.4900E+03
        7.4970E-09        0.0000E+00        3.6207E+05        5.5330E+03
        7.4810E-09        0.0000E+00        3.6011E+05        5.4980E+03
        7.4650E-09        0.0000E+00        3.6013E+05        5.4980E+03
        7.4490E-09        0.0000E+00        3.6179E+05        5.5280E+03
        7.4330E-09        0.0000E+00        3.6218E+05        5.5350E+03
        7.4170E-09        0.0000E+00        3.6013E+05        5.4980E+03
        7.4010E-09        0.0000E+00        3.5855E+05        5.4700E+03
        7.3860E-09        0.0000E+00        3.6165E+05        5.5260E+03
        7.3700E-09        0.0000E+00        3.5898E+05        5.4790E+03
        7.3540E-09        0.0000E+00        3.5851E+05        5.4690E+03
        7.3390E-09        0.0000E+00        3.5802E+05        5.4610E+03
        7.3230E-09        0.0000E+00        3.5828E+05        5.4650E+03
        7.3080E-09        0.0000E+00        3.6295E+05        5.5480E+03
        7.2930E-09        0.0000E+00        3.6351E+05        5.5580E+03
        7.2770E-09        0.0000E+00        3.5829E+05        5.4650E+03
        7.2620E-09        0.0000E+00        3.6138E+05        5.5210E+03
        7.2470E-09        0.0000E+00        3.5768E+05        5.4540E+03
        7.2310E-09        0.0000E+00        3.6115E+05        5.5160E+03
        7.2160E-09        0.0000E+00        3.6540E+05        5.5920E+03
        7.2010E-09        0.0000E+00        3.6180E+05        5.5270E+03
        7.1860E-09        0.0000E+00        3.6552E+05        5.5940E+03
        7.1710E-09        0.0000E+00        3.6422E+05        5.5700E+03
        7.1560E-09        0.0000E+00        3.6264E+05        5.5430E+03
        7.1410E-09        0.0000E+00        3.6664E+05        5.6130E+03
        7.1260E-09        0.0000E+00        3.6758E+05        5.6310E+03
        7.1110E-09        0.0000E+00        3.7064E+05        5.6860E+03
        7.0960E-09        0.0000E+00        3.6737E+05        5.6270E+03
        7.0820E-09        0.0000E+00        3.6574E+05        5.5980E+03
        7.0670E-09        0.0000E+00        3.6774E+05        5.6340E+03
        7.0520E-09        0.0000E+00        3.6618E+05        5.6060E+03
        7.0380E-09        0.0000E+00        3.6594E+05        5.6010E+03
        7.0230E-09        0.0000E+00        3.6800E+05        5.6380E+03
        7.0090E-09        0.0000E+00        3.6773E+05        5.6340E+03
        6.9940E-09        0.0000E+00        3.7066E+05        5.6860E+03
        6.9800E-09        0.0000E+00        3.7083E+05        5.6890E+03
        6.9650E-09        0.0000E+00        3.7120E+05        5.6970E+03
        6.9510E-09        0.0000E+00        3.6575E+05        5.5980E+03
        6.9370E-09        0.0000E+00        3.6654E+05        5.6130E+03
        6.9220E-09        0.0000E+00        3.6847E+05        5.6470E+03
        6.9080E-09        0.0000E+00        3.6872E+05        5.6520E+03
        6.8940E-09        0.0000E+00        3.7084E+05        5.6890E+03
        6.8800E-09        0.0000E+00        3.6810E+05        5.6410E+03
        6.8660E-09        0.0000E+00        3.7331E+05        5.7340E+03
        6.8520E-09        0.0000E+00        3.7778E+05        5.8160E+03
        6.8380E-09        0.0000E+00        3.7571E+05        5.7790E+03
        6.8240E-09        0.0000E+00        3.7239E+05        5.7200E+03
        6.8100E-09        0.0000E+00        3.7029E+05        5.6830E+03
        6.7960E-09        0.0000E+00        3.6955E+05        5.6700E+03
        6.7820E-09        0.0000E+00        3.6654E+05        5.6150E+03
        6.7680E-09        0.0000E+00        3.6663E+05        5.6160E+03
        6.7550E-09        0.0000E+00        3.7822E+05        5.8250E+03
        6.7410E-09        0.0000E+00        3.7107E+05        5.6960E+03
        6.7270E-09        0.0000E+00        3.7639E+05        5.7920E+03
        6.7140E-09        0.0000E+00        3.7683E+05        5.8000E+03
        6.7000E-09        0.0000E+00        3.7185E+05        5.7100E+03
        6.6870E-09        0.0000E+00        3.7319E+05        5.7350E+03
        6.6730E-09        0.0000E+00        3.7250E+05        5.7220E+03
        6.6600E-09        0.0000E+00        3.7388E+05        5.7470E+03
        6.6460E-09        0.0000E+00        3.7345E+05        5.7390E+03
        6.6330E-09        0.0000E+00        3.7212E+05        5.7150E+03
        6.6200E-09        0.0000E+00        3.7723E+05        5.8070E+03
        6.6060E-09        0.0000E+00        3.7624E+05        5.7890E+03
        6.5930E-09        0.0000E+00        3.8040E+05        5.8650E+03
        6.5800E-09        0.0000E+00        3.8166E+05        5.8880E+03
        6.5670E-09        0.0000E+00        3.8116E+05        5.8800E+03
        6.5530E-09        0.0000E+00        3.7674E+05        5.8000E+03
        6.5400E-09        0.0000E+00        3.7583E+05        5.7830E+03
        6.5270E-09        0.0000E+00        3.7451E+05        5.7590E+03
        6.5140E-09        0.0000E+00        3.7584E+05        5.7830E+03
        6.5010E-09        0.0000E+00        3.7738E+05        5.8110E+03
        6.4880E-09        0.0000E+00        3.8134E+05        5.8820E+03
        6.4750E-09        0.0000E+00        3.7759E+05        5.8140E+03
        6.4630E-09        0.0000E+00        3.7848E+05        5.8300E+03
        6.4500E-09        0.0000E+00        3.7824E+05        5.8260E+03
        6.4370E-09        0.0000E+00        3.7886E+05        5.8370E+03
        6.4240E-09        0.0000E+00        3.7870E+05        5.8340E+03
        6.4120E-09        0.0000E+00        3.7726E+05        5.8080E+03
        6.3990E-09        0.0000E+00        3.7771E+05        5.8160E+03
        6.3860E-09        0.0000E+00        3.8246E+05        5.9020E+03
        6.3740E-09        0.0000E+00        3.8012E+05        5.8590E+03
        6.3610E-09        0.0000E+00        3.8121E+05        5.8800E+03
        6.3490E-09        0.0000E+00        3.8757E+05        5.9970E+03
        6.3360E-09        0.0000E+00        3.8989E+05        6.0420E+03
        6.3240E-09        0.0000E+00        3.9004E+05        6.0470E+03
        6.3110E-09        0.0000E+00        3.8790E+05        6.0100E+03
        6.2990E-09        0.0000E+00        3.8190E+05        5.9010E+03
        6.2870E-09        0.0000E+00        3.7485E+05        5.7720E+03
        6.2740E-09        0.0000E+00        3.7807E+05        5.8290E+03
        6.2620E-09        0.0000E+00        3.7645E+05        5.7980E+03
        6.2500E-09        0.0000E+00        3.8165E+05        5.8930E+03
        6.2380E-09        0.0000E+00        3.8885E+05        6.0260E+03
        6.2250E-09        0.0000E+00        3.8798E+05        6.0110E+03
        6.2130E-09        0.0000E+00        3.8519E+05        5.9610E+03
        6.2010E-09        0.0000E+00        3.8074E+05        5.8790E+03
        6.1890E-09        0.0000E+00        3.8123E+05        5.8880E+03
        6.1770E-09        0.0000E+00        3.8563E+05        5.9670E+03
        6.1650E-09        0.0000E+00        3.8485E+05        5.9520E+03
        6.1530E-09        0.0000E+00        3.8548E+05        5.9630E+03
        6.1410E-09        0.0000E+00        3.8529E+05        5.9610E+03
        6.1290E-09        0.0000E+00        3.8243E+05        5.9090E+03
        6.1180E-09        0.0000E+00        3.8537E+05        5.9630E+03
        6.1060E-09        0.0000E+00        3.8691E+05        5.9910E+03
        6.0940E-09        0.0000E+00        3.8536E+05        5.9640E+03
        6.0820E-09        0.0000E+00        3.8682E+05        5.9900E+03
        6.0700E-09        0.0000E+00        3.8589E+05        5.9740E+03
        6.0590E-09        0.0000E+00        3.8660E+05        5.9870E+03
        6.0470E-09        0.0000E+00        3.8488E+05        5.9540E+03
        6.0360E-09        0.0000E+00        3.8352E+05        5.9290E+03
        6.0240E-09        0.0000E+00        3.8439E+05        5.9440E+03
        6.0120E-09        0.0000E+00        3.9060E+05        6.0580E+03
        6.0010E-09        0.0000E+00        3.9134E+05        6.0720E+03
        5.9890E-09        0.0000E+00        3.9045E+05        6.0550E+03
        5.9780E-09        0.0000E+00        3.8914E+05        6.0320E+03
        5.9670E-09        0.0000E+00        3.9075E+05        6.0620E+03
        5.9550E-09        0.0000E+00        3.9062E+05        6.0590E+03
        5.9440E-09        0.0000E+00        3.9188E+05        6.0830E+03
        5.9330E-09        0.0000E+00        3.9122E+05        6.0720E+03
        5.9210E-09        0.0000E+00        3.9221E+05        6.0900E+03
        5.9100E-09        0.0000E+00        3.8860E+05        6.0230E+03
        5.8990E-09        0.0000E+00        3.9012E+05        6.0500E+03
        5.8880E-09        0.0000E+00        3.9155E+05        6.0760E+03
        5.8770E-09        0.0000E+00        3.9336E+05        6.1100E+03
        5.8650E-09        0.0000E+00        3.9636E+05        6.1670E+03
        5.8540E-09        0.0000E+00        3.9647E+05        6.1700E+03
        5.8430E-09        0.0000E+00        3.9449E+05        6.1350E+03
        5.8320E-09        0.0000E+00        3.9499E+05        6.1450E+03
        5.8210E-09        0.0000E+00        3.9330E+05        6.1130E+03
        5.8100E-09        0.0000E+00        3.9203E+05        6.0880E+03
        5.7990E-09        0.0000E+00        3.9525E+05        6.1480E+03
        5.7880E-09        0.0000E+00        3.9504E+05        6.1440E+03
        5.7780E-09        0.0000E+00        3.9735E+05        6.1880E+03
        5.7670E-09        0.0000E+00        3.9595E+05        6.1630E+03
        5.7560E-09        0.0000E+00        4.0088E+05        6.2560E+03
        5.7450E-09        0.0000E+00        3.9641E+05        6.1730E+03
        5.7340E-09        0.0000E+00        3.9800E+05        6.2040E+03
        5.7240E-09        0.0000E+00        3.9867E+05        6.2180E+03
        5.7130E-09        0.0000E+00        3.9718E+05        6.1900E+03
        5.7020E-09        0.0000E+00        3.9695E+05        6.1860E+03
        5.6920E-09        0.0000E+00        3.9757E+05        6.1970E+03
        5.6810E-09        0.0000E+00        3.9588E+05        6.1660E+03
        5.6710E-09        0.0000E+00        3.9991E+05        6.2420E+03
        5.6600E-09        0.0000E+00        4.0276E+05        6.2970E+03
        5.6490E-09        0.0000E+00        4.0041E+05        6.2520E+03
        5.6390E-09        0.0000E+00        3.9947E+05        6.2350E+03
        5.6290E-09        0.0000E+00        3.9737E+05        6.1960E+03
        5.6180E-09        0.0000E+00        3.9858E+05        6.2190E+03
        5.6080E-09        0.0000E+00        3.9595E+05        6.1700E+03
        5.5970E-09        0.0000E+00        4.0137E+05        6.2710E+03
        5.5870E-09        0.0000E+00        4.0013E+05        6.2480E+03
        5.5770E-09        0.0000E+00        4.0194E+05        6.2820E+03
        5.5660E-09        0.0000E+00        4.0064E+05        6.2590E+03
        5.5560E-09        0.0000E+00        4.0217E+05        6.2880E+03
        5.5460E-09        0.0000E+00        3.9850E+05        6.2190E+03
        5.5360E-09        0.0000E+00        4.0025E+05        6.2520E+03
        5.5260E-09        0.0000E+00        4.0133E+05        6.2730E+03
        5.5150E-09        0.0000E+00        4.0040E+05        6.2550E+03
        5.5050E-09        0.0000E+00        4.0112E+05        6.2680E+03
        5.4950E-09        0.0000E+00        4.0395E+05        6.3220E+03
        5.4850E-09        0.0000E+00        4.0288E+05        6.3020E+03
        5.4750E-09        0.0000E+00        4.0420E+05        6.3280E+03
        5.4650E-09        0.0000E+00        4.0927E+05        6.4260E+03
        5.4550E-09        0.0000E+00        4.0585E+05        6.3610E+03
        5.4450E-09        0.0000E+00        4.0658E+05        6.3780E+03
        5.4350E-09        0.0000E+00        4.0845E+05        6.4160E+03
        5.4250E-09        0.0000E+00        4.0793E+05        6.4090E+03
        5.4160E-09        0.0000E+00        4.0632E+05        6.3810E+03
        5.4060E-09        0.0000E+00        4.0382E+05        6.3350E+03
        5.3960E-09        0.0000E+00        4.0125E+05        6.2850E+03
        5.3860E-09        0.0000E+00        4.0423E+05        6.3410E+03
        5.3760E-09        0.0000E+00        4.1043E+05        6.4590E+03
        5.3670E-09        0.0000E+00        4.0708E+05        6.3970E+03
        5.3570E-09        0.0000E+00        4.0865E+05        6.4290E+03
        5.3470E-09        0.0000E+00        4.1482E+05        6.5510E+03
        5.3380E-09        0.0000E+00        4.1246E+05        6.5110E+03
        5.3280E-09        0.0000E+00        4.1235E+05        6.5120E+03
        5.3180E-09        0.0000E+00        4.0895E+05        6.4480E+03
        5.3090E-09        0.0000E+00        4.0646E+05        6.4020E+03
        5.2990E-09        0.0000E+00        4.0737E+05        6.4180E+03
        5.2900E-09        0.0000E+00        4.0181E+05        6.3100E+03
        5.2800E-09        0.0000E+00        4.0727E+05        6.4140E+03
        5.2710E-09        0.0000E+00        4.1176E+05        6.4980E+03
        5.2610E-09        0.0000E+00        4.0994E+05        6.4650E+03
        5.2520E-09        0.0000E+00        4.0966E+05        6.4620E+03
        5.2430E-09        0.0000E+00        4.1103E+05        6.4900E+03
        5.2330E-09        0.0000E+00        4.1041E+05        6.4790E+03
        5.2240E-09        0.0000E+00        4.1413E+05        6.5540E+03
        5.2150E-09        0.0000E+00        4.1333E+05        6.5410E+03
        5.2050E-09        0.0000E+00        4.0788E+05        6.4380E+03
        5.1960E-09        0.0000E+00        4.1314E+05        6.5380E+03
        5.1870E-09        0.0000E+00        4.0997E+05        6.4760E+03
        5.1770E-09        0.0000E+00        4.0396E+05        6.3590E+03
        5.1680E-09        0.0000E+00        4.0581E+05        6.3910E+03
        5.1590E-09        0.0000E+00        4.1035E+05        6.4790E+03
        5.1500E-09        0.0000E+00        4.1712E+05        6.6100E+03
        5.1410E-09        0.0000E+00        4.1532E+05        6.5780E+03
        5.1320E-09        0.0000E+00        4.1506E+05        6.5740E+03
        5.1230E-09        0.0000E+00        4.1486E+05        6.5700E+03
        5.1140E-09        0.0000E+00        4.1087E+05        6.4930E+03
        5.1050E-09        0.0000E+00        4.0839E+05        6.4450E+03
        5.0960E-09        0.0000E+00        4.0820E+05        6.4420E+03
        5.0870E-09        0.0000E+00        4.1926E+05        6.6570E+03
        5.0780E-09        0.0000E+00        4.1649E+05        6.6050E+03
        5.0690E-09        0.0000E+00        4.1911E+05        6.6600E+03
        5.0600E-09        0.0000E+00        4.1649E+05        6.6130E+03
        5.0510E-09        0.0000E+00        4.1465E+05        6.5820E+03
        5.0420E-09        0.0000E+00        4.1965E+05        6.6820E+03
        5.0330E-09        0.0000E+00        4.1859E+05        6.6650E+03
        5.0240E-09        0.0000E+00        4.1682E+05        6.6340E+03
        5.0160E-09        0.0000E+00        4.1956E+05        6.6910E+03
        5.0070E-09        0.0000E+00        4.1464E+05        6.5950E+03
        4.9980E-09        0.0000E+00        4.1309E+05        6.5640E+03
        4.9890E-09        0.0000E+00        4.1034E+05        6.5070E+03
        4.9810E-09        0.0000E+00        4.1127E+05        6.5210E+03
        4.9720E-09        0.0000E+00        4.0761E+05        6.4450E+03
        4.9630E-09        0.0000E+00        4.0730E+05        6.4340E+03
        4.9550E-09        0.0000E+00        4.0772E+05        6.4370E+03
        4.9460E-09        0.0000E+00        4.1163E+05        6.5060E+03
        4.9380E-09        0.0000E+00        4.1202E+05        6.5090E+03
        4.9290E-09        0.0000E+00        4.0793E+05        6.4280E+03
        4.9200E-09        0.0000E+00        4.1795E+05        6.6180E+03
        4.9120E-09        0.0000E+00        4.1377E+05        6.5370E+03
        4.9030E-09        0.0000E+00        4.1164E+05        6.4960E+03
        4.8950E-09        0.0000E+00        4.1917E+05        6.6390E+03
        4.8860E-09        0.0000E+00        4.2042E+05        6.6630E+03
        4.8780E-09        0.0000E+00        4.1816E+05        6.6180E+03
        4.8700E-09        0.0000E+00        4.2274E+05        6.7080E+03
        4.8610E-09        0.0000E+00        4.1905E+05        6.6360E+03
        4.8530E-09        0.0000E+00        4.2206E+05        6.6950E+03
        4.8450E-09        0.0000E+00        4.2096E+05        6.6740E+03
        4.8360E-09        0.0000E+00        4.2401E+05        6.7350E+03
        4.8280E-09        0.0000E+00        4.2552E+05        6.7670E+03
        4.8200E-09        0.0000E+00        4.1923E+05        6.6450E+03
        4.8110E-09        0.0000E+00        4.2203E+05        6.7020E+03
        4.8030E-09        0.0000E+00        4.2074E+05        6.6770E+03
        4.7950E-09        0.0000E+00        4.2294E+05        6.7210E+03
        4.7870E-09        0.0000E+00        4.2532E+05        6.7700E+03
        4.7790E-09        0.0000E+00        4.2212E+05        6.7070E+03
        4.7700E-09        0.0000E+00        4.1648E+05        6.5970E+03
        4.7620E-09        0.0000E+00        4.2326E+05        6.7290E+03
        4.7540E-09        0.0000E+00        4.2200E+05        6.7040E+03
        4.7460E-09        0.0000E+00        4.2107E+05        6.6870E+03
        4.7380E-09        0.0000E+00        4.2305E+05        6.7270E+03
        4.7300E-09        0.0000E+00        4.2925E+05        6.8510E+03
        4.7220E-09        0.0000E+00        4.3119E+05        6.8950E+03
        4.7140E-09        0.0000E+00        4.3208E+05        6.9150E+03
        4.7060E-09        0.0000E+00        4.2720E+05        6.8210E+03
        4.6980E-09        0.0000E+00        4.2628E+05        6.8060E+03
        4.6900E-09        0.0000E+00        4.2548E+05        6.7900E+03
        4.6820E-09        0.0000E+00        4.2533E+05        6.7880E+03
        4.6740E-09        0.0000E+00        4.2391E+05        6.7610E+03
        4.6660E-09        0.0000E+00        4.2842E+05        6.8530E+03
        4.6580E-09        0.0000E+00        4.2805E+05        6.8490E+03
        4.6510E-09        0.0000E+00        4.3112E+05        6.9130E+03
        4.6430E-09        0.0000E+00        4.2846E+05        6.8630E+03
        4.6350E-09        0.0000E+00        4.2708E+05        6.8360E+03
        4.6270E-09        0.0000E+00        4.2084E+05        6.7110E+03
        4.6190E-09        0.0000E+00        4.2184E+05        6.7280E+03
        4.6120E-09        0.0000E+00        4.1930E+05        6.6740E+03
        4.6040E-09        0.0000E+00        4.2299E+05        6.7440E+03
        4.5960E-09        0.0000E+00        4.2369E+05        6.7570E+03
        4.5880E-09        0.0000E+00        4.2263E+05        6.7340E+03
        4.5810E-09        0.0000E+00        4.2260E+05        6.7320E+03
        4.5730E-09        0.0000E+00        4.3247E+05        6.9270E+03
        4.5650E-09        0.0000E+00        4.3215E+05        6.9200E+03
        4.5580E-09        0.0000E+00        4.2799E+05        6.8350E+03
        4.5500E-09        0.0000E+00        4.2141E+05        6.7050E+03
        4.5430E-09        0.0000E+00        4.3210E+05        6.9160E+03
        4.5350E-09        0.0000E+00        4.2934E+05        6.8620E+03
        4.5280E-09        0.0000E+00        4.3381E+05        6.9500E+03
        4.5200E-09        0.0000E+00        4.2792E+05        6.8310E+03
        4.5130E-09        0.0000E+00        4.2876E+05        6.8470E+03
        4.5050E-09        0.0000E+00        4.2980E+05        6.8650E+03
        4.4980E-09        0.0000E+00        4.2651E+05        6.8010E+03
        4.4900E-09        0.0000E+00        4.3744E+05        7.0180E+03
        4.4830E-09        0.0000E+00        4.4101E+05        7.0930E+03
        4.4750E-09        0.0000E+00        4.3671E+05        7.0080E+03
        4.4680E-09        0.0000E+00        4.3513E+05        6.9780E+03
        4.4610E-09        0.0000E+00        4.2987E+05        6.8750E+03
        4.4530E-09        0.0000E+00        4.3141E+05        6.9060E+03
        4.4460E-09        0.0000E+00        4.3331E+05        6.9430E+03
        4.4390E-09        0.0000E+00        4.3306E+05        6.9380E+03
        4.4310E-09        0.0000E+00        4.3606E+05        6.9960E+03
        4.4240E-09        0.0000E+00        4.3456E+05        6.9660E+03
        4.4170E-09        0.0000E+00        4.3594E+05        6.9940E+03
        4.4090E-09        0.0000E+00        4.3436E+05        6.9630E+03
        4.4020E-09        0.0000E+00        4.3734E+05        7.0250E+03
        4.3950E-09        0.0000E+00        4.4208E+05        7.1240E+03
        4.3880E-09        0.0000E+00        4.4338E+05        7.1550E+03
        4.3810E-09        0.0000E+00        4.3757E+05        7.0400E+03
        4.3730E-09        0.0000E+00        4.3658E+05        7.0200E+03
        4.3660E-09        0.0000E+00        4.3331E+05        6.9530E+03
        4.3590E-09        0.0000E+00        4.3298E+05        6.9450E+03
        4.3520E-09        0.0000E+00        4.3480E+05        6.9810E+03
        4.3450E-09        0.0000E+00        4.3699E+05        7.0260E+03
        4.3380E-09        0.0000E+00        4.3992E+05        7.0850E+03
        4.3310E-09        0.0000E+00        4.3708E+05        7.0280E+03
        4.3240E-09        0.0000E+00        4.3423E+05        6.9710E+03
        4.3170E-09        0.0000E+00        4.4284E+05        7.1450E+03
        4.3100E-09        0.0000E+00        4.3329E+05        6.9500E+03
        4.3030E-09        0.0000E+00        4.3813E+05        7.0480E+03
        4.2960E-09        0.0000E+00        4.3826E+05        7.0500E+03
        4.2890E-09        0.0000E+00        4.3346E+05        6.9540E+03
        4.2820E-09        0.0000E+00        4.3678E+05        7.0190E+03
        4.2750E-09        0.0000E+00        4.3709E+05        7.0250E+03
        4.2680E-09        0.0000E+00        4.3557E+05        6.9930E+03
        4.2610E-09        0.0000E+00        4.3486E+05        6.9780E+03
        4.2540E-09        0.0000E+00        4.4251E+05        7.1330E+03
        4.2480E-09        0.0000E+00        4.4553E+05        7.1960E+03
        4.2410E-09        0.0000E+00        4.4689E+05        7.2270E+03
        4.2340E-09        0.0000E+00        4.4429E+05        7.1790E+03
        4.2270E-09        0.0000E+00        4.4327E+05        7.1630E+03
        4.2200E-09        0.0000E+00        4.4546E+05        7.2120E+03
        4.2140E-09        0.0000E+00        4.3918E+05        7.0850E+03
        4.2070E-09        0.0000E+00        4.4187E+05        7.1390E+03
        4.2000E-09        0.0000E+00        4.4184E+05        7.1410E+03
        4.1930E-09        0.0000E+00        4.4131E+05        7.1330E+03
        4.1870E-09        0.0000E+00        4.4334E+05        7.1770E+03
        4.1800E-09        0.0000E+00        4.3825E+05        7.0760E+03
        4.1730E-09        0.0000E+00        4.4642E+05        7.2470E+03
        4.1670E-09        0.0000E+00        4.4892E+05        7.3040E+03
        4.1600E-09        0.0000E+00        4.4208E+05        7.1680E+03
        4.1530E-09        0.0000E+00        4.4569E+05        7.2460E+03
        4.1470E-09        0.0000E+00        4.4268E+05        7.1900E+03
        4.1400E-09        0.0000E+00        4.4778E+05        7.2990E+03
        4.1340E-09        0.0000E+00        4.4880E+05        7.3270E+03
        4.1270E-09        0.0000E+00        4.4326E+05        7.2180E+03
        4.1210E-09        0.0000E+00        4.4186E+05        7.1900E+03
        4.1140E-09        0.0000E+00        4.4574E+05        7.2730E+03
        4.1070E-09        0.0000E+00        4.3915E+05        7.1420E+03
        4.1010E-09        0.0000E+00        4.4647E+05        7.2970E+03
        4.0940E-09        0.0000E+00        4.4527E+05        7.2740E+03
        4.0880E-09        0.0000E+00        4.4541E+05        7.2810E+03
        4.0820E-09        0.0000E+00        4.4124E+05        7.2000E+03
        4.0750E-09        0.0000E+00        4.4994E+05        7.3820E+03
        4.0690E-09        0.0000E+00        4.4513E+05        7.2840E+03
        4.0620E-09        0.0000E+00        4.4960E+05        7.3810E+03
        4.0560E-09        0.0000E+00        4.4692E+05        7.3290E+03
        4.0500E-09        0.0000E+00        4.5125E+05        7.4270E+03
        4.0430E-09        0.0000E+00        4.5032E+05        7.4150E+03
        4.0370E-09        0.0000E+00        4.5076E+05        7.4260E+03
        4.0300E-09        0.0000E+00        4.4877E+05        7.3850E+03
        4.0240E-09        0.0000E+00        4.4369E+05        7.2780E+03
        4.0180E-09        0.0000E+00        4.4220E+05        7.2430E+03
        4.0120E-09        0.0000E+00        4.4792E+05        7.3620E+03
        4.0050E-09        0.0000E+00        4.5884E+05        7.5970E+03
        3.9990E-09        0.0000E+00        4.5464E+05        7.5130E+03
        3.9930E-09        0.0000E+00        4.5194E+05        7.4630E+03
        3.9870E-09        0.0000E+00        4.5249E+05        7.4810E+03
        3.9800E-09        0.0000E+00        4.5397E+05        7.5150E+03
        3.9740E-09        0.0000E+00        4.4842E+05        7.3970E+03
        3.9680E-09        0.0000E+00        4.5058E+05        7.4420E+03
        3.9620E-09        0.0000E+00        4.5227E+05        7.4790E+03
        3.9560E-09        0.0000E+00        4.5381E+05        7.5120E+03
        3.9500E-09        0.0000E+00        4.5510E+05        7.5450E+03
        3.9430E-09        0.0000E+00        4.6217E+05        7.7020E+03
        3.9370E-09        0.0000E+00        4.5114E+05        7.4670E+03
        3.9310E-09        0.0000E+00        4.5310E+05        7.5110E+03
        3.9250E-09        0.0000E+00        4.5284E+05        7.5010E+03
        3.9190E-09        0.0000E+00        4.5342E+05        7.5150E+03
        3.9130E-09        0.0000E+00        4.5663E+05        7.5850E+03
        3.9070E-09        0.0000E+00        4.5679E+05        7.5930E+03
        3.9010E-09        0.0000E+00        4.5673E+05        7.6000E+03
        3.8950E-09        0.0000E+00        4.6718E+05        7.8370E+03
        3.8890E-09        0.0000E+00        4.6569E+05        7.8210E+03
        3.8830E-09        0.0000E+00        4.6983E+05        7.9290E+03
        3.8770E-09        0.0000E+00        4.6790E+05        7.8950E+03
        3.8710E-09        0.0000E+00        4.6215E+05        7.7790E+03
        3.8650E-09        0.0000E+00        4.5917E+05        7.7210E+03
        3.8590E-09        0.0000E+00        4.6523E+05        7.8640E+03
        3.8530E-09        0.0000E+00        4.6019E+05        7.7580E+03
        3.8470E-09        0.0000E+00        4.5745E+05        7.7000E+03
        3.8410E-09        0.0000E+00        4.5577E+05        7.6650E+03
        3.8350E-09        0.0000E+00        4.5302E+05        7.6050E+03
        3.8300E-09        0.0000E+00        4.5631E+05        7.6770E+03
        3.8240E-09        0.0000E+00        4.6388E+05        7.8400E+03
        3.8180E-09        0.0000E+00        4.6465E+05        7.8570E+03
        3.8120E-09        0.0000E+00        4.6535E+05        7.8810E+03
        3.8060E-09        0.0000E+00        4.6355E+05        7.8450E+03
        3.8000E-09        0.0000E+00        4.6658E+05        7.9240E+03
        3.7950E-09        0.0000E+00        4.6057E+05        7.7960E+03
        3.7890E-09        0.0000E+00        4.6187E+05        7.8350E+03
        3.7830E-09        0.0000E+00        4.6264E+05        7.8590E+03
        3.7770E-09        0.0000E+00        4.6692E+05        7.9620E+03
        3.7720E-09        0.0000E+00        4.6102E+05        7.8390E+03
        3.7660E-09        0.0000E+00        4.6407E+05        7.9150E+03
        3.7600E-09        0.0000E+00        4.7784E+05        8.2550E+03
        3.7550E-09        0.0000E+00        4.7260E+05        8.1610E+03
        3.7490E-09        0.0000E+00        4.6789E+05        8.0720E+03
        3.7430E-09        0.0000E+00        4.5759E+05        7.8430E+03
        3.7380E-09        0.0000E+00        4.5232E+05        7.7140E+03
        3.7320E-09        0.0000E+00        4.5595E+05        7.7840E+03
        3.7260E-09        0.0000E+00        4.4638E+05        7.5500E+03
        3.7210E-09        0.0000E+00        4.4664E+05        7.5370E+03
        3.7150E-09        0.0000E+00        4.5218E+05        7.6450E+03
        3.7090E-09        0.0000E+00        4.5599E+05        7.7150E+03
        3.7040E-09        0.0000E+00        4.5762E+05        7.7380E+03
        3.6980E-09        0.0000E+00        4.6373E+05        7.8650E+03
        3.6930E-09        0.0000E+00        4.6279E+05        7.8420E+03
        3.6870E-09        0.0000E+00        4.6486E+05        7.8890E+03
        3.6820E-09        0.0000E+00        4.7370E+05        8.0960E+03
        3.6760E-09        0.0000E+00        4.6974E+05        8.0100E+03
        3.6710E-09        0.0000E+00        4.7233E+05        8.0790E+03
        3.6650E-09        0.0000E+00        4.6879E+05        8.0120E+03
        3.6600E-09        0.0000E+00        4.7150E+05        8.0780E+03
        3.6540E-09        0.0000E+00        4.5926E+05        7.7990E+03
        3.6490E-09        0.0000E+00        4.6244E+05        7.8660E+03
        3.6430E-09        0.0000E+00        4.6886E+05        8.0110E+03
        3.6380E-09        0.0000E+00        4.6711E+05        7.9730E+03
        3.6330E-09        0.0000E+00        4.7062E+05        8.0590E+03
        3.6270E-09        0.0000E+00        4.7644E+05        8.2040E+03
        3.6220E-09        0.0000E+00        4.7487E+05        8.1770E+03
        3.6160E-09        0.0000E+00        4.7365E+05        8.1560E+03
        3.6110E-09        0.0000E+00        4.7321E+05        8.1550E+03
        3.6060E-09        0.0000E+00        4.7602E+05        8.2220E+03
        3.6000E-09        0.0000E+00        4.6949E+05        8.0780E+03
        3.5950E-09        0.0000E+00        4.7510E+05        8.2040E+03
        3.5900E-09        0.0000E+00        4.6445E+05        7.9620E+03
        3.5840E-09        0.0000E+00        4.6951E+05        8.0780E+03
        3.5790E-09        0.0000E+00        4.7557E+05        8.2260E+03
        3.5740E-09        0.0000E+00        4.7442E+05        8.2080E+03
        3.5680E-09        0.0000E+00        4.7713E+05        8.2890E+03
        3.5630E-09        0.0000E+00        4.7619E+05        8.2870E+03
        3.5580E-09        0.0000E+00        4.8290E+05        8.4750E+03
        3.5530E-09        0.0000E+00        4.8442E+05        8.5440E+03
        3.5470E-09        0.0000E+00        4.9444E+05        8.8270E+03
        3.5420E-09        0.0000E+00        4.9665E+05        8.9370E+03
        3.5370E-09        0.0000E+00        4.9945E+05        9.0710E+03
        3.5320E-09        0.0000E+00        4.9910E+05        9.1430E+03
        3.5270E-09        0.0000E+00        5.0254E+05        9.2950E+03
        3.5210E-09        0.0000E+00        4.9578E+05        9.1800E+03
        3.5160E-09        0.0000E+00        5.0040E+05        9.3920E+03
        3.5110E-09        0.0000E+00        4.9212E+05        9.2510E+03
        3.5060E-09        0.0000E+00        4.9427E+05        9.3960E+03
        3.5010E-09        0.0000E+00        4.9932E+05        9.6270E+03
