# entry-subent-pointer  : 23607-008-0 
# EXFOR reaction        : (64-GD-157(N,G)64-GD-158,,SIG) 
# incident energy       : 3.5010e-09 MeV - 1.0359e-06 MeV 
# target                : Gd-157 
# product               : Gd-158 
# level energy          : - 
# MF-MT number          : 3 - 102 
# first author          : Kimura 
# institute             : (2JPNJAE): Japan Atomic Energy Agency (JAEA) 
# reference             : (J,NST,60,678,2023) 
# year                  : 2023 
# facility              : (SYNCH): Synchrotron 
# git                   : https://github.com/IAEA-NDS/exfor_master/blob/main/exforall/236/23607.x4 
# nds                   : https://nds.iaea.org/EXFOR/23607
#
#       E_in(MeV)         dE_in(MeV)        XS(B)             dXS(B)
        1.0359E-06        0.0000E+00       -1.2890E+03        2.9874E+04
        1.0103E-06        0.0000E+00        7.8860E+03        2.4713E+04
        9.8565E-07        0.0000E+00        3.3553E+04        1.7217E+04
        9.6190E-07        0.0000E+00        1.7783E+04        1.9853E+04
        9.3900E-07        0.0000E+00        1.5032E+04        1.9702E+04
        9.1690E-07        0.0000E+00        1.6754E+04        1.8840E+04
        8.9558E-07        0.0000E+00        5.0540E+03        2.1505E+04
        8.7499E-07        0.0000E+00        9.9580E+03        1.8716E+04
        8.5511E-07        0.0000E+00       -8.1480E+03        2.5048E+04
        8.3589E-07        0.0000E+00        9.7630E+03        1.7448E+04
        8.1732E-07        0.0000E+00        2.0366E+04        1.4705E+04
        7.9935E-07        0.0000E+00        2.1873E+04        1.4161E+04
        7.8198E-07        0.0000E+00        1.5617E+04        1.4762E+04
        7.6516E-07        0.0000E+00       -4.2100E+02        1.7863E+04
        7.4888E-07        0.0000E+00        1.1399E+04        1.4575E+04
        7.3312E-07        0.0000E+00        9.8000E+02        1.6590E+04
        7.1784E-07        0.0000E+00        9.7720E+03        1.4143E+04
        7.0304E-07        0.0000E+00        1.5990E+03        1.5339E+04
        6.8870E-07        0.0000E+00        1.3975E+04        1.2478E+04
        6.7478E-07        0.0000E+00        7.5130E+03        1.3338E+04
        6.6129E-07        0.0000E+00        1.2711E+04        1.1954E+04
        6.4819E-07        0.0000E+00        2.7250E+03        1.3698E+04
        6.3548E-07        0.0000E+00       -3.6550E+03        1.4554E+04
        6.2314E-07        0.0000E+00       -8.3500E+02        1.3478E+04
        6.1116E-07        0.0000E+00        1.1360E+04        1.0945E+04
        5.9952E-07        0.0000E+00        3.4660E+03        1.1875E+04
        5.8821E-07        0.0000E+00       -4.7610E+03        1.3015E+04
        5.7722E-07        0.0000E+00        6.8340E+03        1.0536E+04
        5.6653E-07        0.0000E+00        7.1940E+03        1.0222E+04
        5.5613E-07        0.0000E+00       -2.0600E+03        1.1422E+04
        5.4602E-07        0.0000E+00        9.8200E+03        9.3250E+03
        5.3618E-07        0.0000E+00        1.8460E+04        8.1530E+03
        5.2661E-07        0.0000E+00        1.3160E+03        9.8250E+03
        5.1729E-07        0.0000E+00        6.8580E+03        8.7640E+03
        5.0821E-07        0.0000E+00        6.9640E+03        8.5400E+03
        4.9937E-07        0.0000E+00        1.1984E+04        7.8680E+03
        4.9076E-07        0.0000E+00       -3.0700E+02        8.9090E+03
        4.8237E-07        0.0000E+00        1.2599E+04        7.3870E+03
        4.7420E-07        0.0000E+00        6.6850E+03        7.6020E+03
        4.6623E-07        0.0000E+00        1.5100E+03        8.0190E+03
        4.5846E-07        0.0000E+00       -3.3770E+03        8.5930E+03
        4.5088E-07        0.0000E+00        1.0935E+04        6.7410E+03
        4.4349E-07        0.0000E+00        6.5400E+02        7.5430E+03
        4.3628E-07        0.0000E+00       -2.1430E+03        7.6540E+03
        4.2924E-07        0.0000E+00        4.0990E+03        6.8360E+03
        4.2238E-07        0.0000E+00       -1.0780E+03        7.2170E+03
        4.1567E-07        0.0000E+00        6.1600E+03        6.2990E+03
        4.0913E-07        0.0000E+00        6.3240E+03        6.1880E+03
        4.0273E-07        0.0000E+00        2.1950E+03        6.3600E+03
        3.9649E-07        0.0000E+00        2.2760E+03        6.1500E+03
        3.9039E-07        0.0000E+00       -2.2730E+03        6.3990E+03
        3.8443E-07        0.0000E+00        1.2928E+04        5.1930E+03
        3.7860E-07        0.0000E+00        9.7070E+03        5.2650E+03
        3.7291E-07        0.0000E+00        3.6390E+03        5.5560E+03
        3.6734E-07        0.0000E+00        1.0107E+04        5.1020E+03
        3.6190E-07        0.0000E+00        8.5680E+03        4.9380E+03
        3.5658E-07        0.0000E+00        8.8340E+03        4.9000E+03
        3.5137E-07        0.0000E+00        7.6000E+01        5.3620E+03
        3.4628E-07        0.0000E+00        1.7700E+03        5.0950E+03
        3.4130E-07        0.0000E+00        7.3580E+03        4.6970E+03
        3.3642E-07        0.0000E+00        9.3610E+03        4.4730E+03
        3.3165E-07        0.0000E+00        4.4900E+03        4.6730E+03
        3.2698E-07        0.0000E+00       -2.7650E+03        5.0430E+03
        3.2241E-07        0.0000E+00        2.4020E+03        4.6430E+03
        3.1793E-07        0.0000E+00        1.3800E+03        4.5780E+03
        3.1355E-07        0.0000E+00        6.5730E+03        4.2100E+03
        3.0925E-07        0.0000E+00        2.2100E+02        4.4780E+03
        3.0504E-07        0.0000E+00        4.8860E+03        4.0640E+03
        3.0092E-07        0.0000E+00        5.8560E+03        3.9870E+03
        2.9688E-07        0.0000E+00        2.7070E+03        4.0360E+03
        2.9292E-07        0.0000E+00        7.4600E+02        4.0240E+03
        2.8904E-07        0.0000E+00       -3.2230E+03        4.0830E+03
        2.8524E-07        0.0000E+00        1.1080E+03        3.8310E+03
        2.8151E-07        0.0000E+00        2.0980E+03        3.6860E+03
        2.7786E-07        0.0000E+00        2.1180E+03        3.6260E+03
        2.7427E-07        0.0000E+00        3.9900E+03        3.5190E+03
        2.7076E-07        0.0000E+00        6.5370E+03        3.3580E+03
        2.6731E-07        0.0000E+00        3.0170E+03        3.4770E+03
        2.6392E-07        0.0000E+00        7.5540E+03        3.2100E+03
        2.6060E-07        0.0000E+00        4.2660E+03        3.2080E+03
        2.5734E-07        0.0000E+00        5.2350E+03        3.0740E+03
        2.5415E-07        0.0000E+00        4.8550E+03        3.0380E+03
        2.5101E-07        0.0000E+00        5.9220E+03        2.9680E+03
        2.4793E-07        0.0000E+00        9.7930E+03        2.8220E+03
        2.4491E-07        0.0000E+00        4.6030E+03        2.8950E+03
        2.4194E-07        0.0000E+00        6.9780E+03        2.8150E+03
        2.3902E-07        0.0000E+00        6.9210E+03        2.7730E+03
        2.3616E-07        0.0000E+00        7.8070E+03        2.6910E+03
        2.3335E-07        0.0000E+00        6.0450E+03        2.6450E+03
        2.3059E-07        0.0000E+00        6.1800E+03        2.6100E+03
        2.2787E-07        0.0000E+00        9.6920E+03        2.5230E+03
        2.2521E-07        0.0000E+00        9.3700E+03        2.4680E+03
        2.2259E-07        0.0000E+00        8.6140E+03        2.4200E+03
        2.2002E-07        0.0000E+00        8.6160E+03        2.3660E+03
        2.1749E-07        0.0000E+00        5.8120E+03        2.3510E+03
        2.1500E-07        0.0000E+00        1.0783E+04        2.2870E+03
        2.1256E-07        0.0000E+00        7.9440E+03        2.2690E+03
        2.1016E-07        0.0000E+00        7.0630E+03        2.2430E+03
        2.0780E-07        0.0000E+00        6.9920E+03        2.2320E+03
        2.0548E-07        0.0000E+00        9.3730E+03        2.1670E+03
        2.0319E-07        0.0000E+00        1.1842E+04        2.1060E+03
        2.0095E-07        0.0000E+00        1.1166E+04        2.1020E+03
        1.9874E-07        0.0000E+00        1.2269E+04        2.0460E+03
        1.9657E-07        0.0000E+00        1.1244E+04        2.0680E+03
        1.9443E-07        0.0000E+00        1.1175E+04        2.0200E+03
        1.9233E-07        0.0000E+00        1.0078E+04        1.9730E+03
        1.9026E-07        0.0000E+00        1.1215E+04        1.9440E+03
        1.8823E-07        0.0000E+00        1.1398E+04        1.9440E+03
        1.8622E-07        0.0000E+00        1.0970E+04        1.9130E+03
        1.8425E-07        0.0000E+00        1.2496E+04        1.8630E+03
        1.8231E-07        0.0000E+00        1.4846E+04        1.8230E+03
        1.8040E-07        0.0000E+00        1.5865E+04        1.7980E+03
        1.7852E-07        0.0000E+00        1.4310E+04        1.8090E+03
        1.7667E-07        0.0000E+00        1.4071E+04        1.8000E+03
        1.7485E-07        0.0000E+00        1.2104E+04        1.7880E+03
        1.7306E-07        0.0000E+00        1.5335E+04        1.7440E+03
        1.7129E-07        0.0000E+00        1.3023E+04        1.7330E+03
        1.6956E-07        0.0000E+00        1.4259E+04        1.6900E+03
        1.6784E-07        0.0000E+00        1.4629E+04        1.6910E+03
        1.6616E-07        0.0000E+00        1.4222E+04        1.6900E+03
        1.6449E-07        0.0000E+00        1.3226E+04        1.6670E+03
        1.6286E-07        0.0000E+00        1.5481E+04        1.6770E+03
        1.6125E-07        0.0000E+00        1.7474E+04        1.6530E+03
        1.5966E-07        0.0000E+00        1.7375E+04        1.6480E+03
        1.5809E-07        0.0000E+00        1.6089E+04        1.6520E+03
        1.5655E-07        0.0000E+00        1.7926E+04        1.6170E+03
        1.5503E-07        0.0000E+00        1.6934E+04        1.6050E+03
        1.5353E-07        0.0000E+00        1.7118E+04        1.5900E+03
        1.5205E-07        0.0000E+00        1.8864E+04        1.5730E+03
        1.5060E-07        0.0000E+00        1.8322E+04        1.5640E+03
        1.4917E-07        0.0000E+00        1.8367E+04        1.5570E+03
        1.4775E-07        0.0000E+00        2.0504E+04        1.5440E+03
        1.4636E-07        0.0000E+00        2.0777E+04        1.5440E+03
        1.4498E-07        0.0000E+00        2.1119E+04        1.5350E+03
        1.4363E-07        0.0000E+00        2.1615E+04        1.5390E+03
        1.4229E-07        0.0000E+00        2.2053E+04        1.5200E+03
        1.4097E-07        0.0000E+00        2.4493E+04        1.5200E+03
        1.3968E-07        0.0000E+00        2.4170E+04        1.5260E+03
        1.3839E-07        0.0000E+00        2.3811E+04        1.5220E+03
        1.3713E-07        0.0000E+00        2.3827E+04        1.5220E+03
        1.3588E-07        0.0000E+00        2.5737E+04        1.5140E+03
        1.3465E-07        0.0000E+00        2.4459E+04        1.5120E+03
        1.3344E-07        0.0000E+00        2.5134E+04        1.4990E+03
        1.3224E-07        0.0000E+00        2.5390E+04        1.5050E+03
        1.3106E-07        0.0000E+00        2.9778E+04        1.5040E+03
        1.2990E-07        0.0000E+00        2.7396E+04        1.5060E+03
        1.2875E-07        0.0000E+00        2.8141E+04        1.4950E+03
        1.2761E-07        0.0000E+00        2.7442E+04        1.4890E+03
        1.2649E-07        0.0000E+00        3.0043E+04        1.5040E+03
        1.2539E-07        0.0000E+00        2.9687E+04        1.4890E+03
        1.2430E-07        0.0000E+00        3.0509E+04        1.4870E+03
        1.2322E-07        0.0000E+00        3.1745E+04        1.5000E+03
        1.2216E-07        0.0000E+00        3.3195E+04        1.5100E+03
        1.2111E-07        0.0000E+00        3.1114E+04        1.4950E+03
        1.2008E-07        0.0000E+00        3.3219E+04        1.5080E+03
        1.1906E-07        0.0000E+00        3.4243E+04        1.5210E+03
        1.1805E-07        0.0000E+00        3.4577E+04        1.5190E+03
        1.1705E-07        0.0000E+00        3.5679E+04        1.5130E+03
        1.1607E-07        0.0000E+00        3.6986E+04        1.5210E+03
        1.1510E-07        0.0000E+00        3.6286E+04        1.5140E+03
        1.1414E-07        0.0000E+00        3.7451E+04        1.5210E+03
        1.1319E-07        0.0000E+00        3.8642E+04        1.5270E+03
        1.1225E-07        0.0000E+00        3.7357E+04        1.5290E+03
        1.1133E-07        0.0000E+00        4.0165E+04        1.5440E+03
        1.1042E-07        0.0000E+00        4.0047E+04        1.5400E+03
        1.0952E-07        0.0000E+00        4.2064E+04        1.5510E+03
        1.0863E-07        0.0000E+00        4.2315E+04        1.5520E+03
        1.0775E-07        0.0000E+00        4.4018E+04        1.5740E+03
        1.0688E-07        0.0000E+00        4.4609E+04        1.5840E+03
        1.0602E-07        0.0000E+00        4.4783E+04        1.5760E+03
        1.0517E-07        0.0000E+00        4.5471E+04        1.5730E+03
        1.0433E-07        0.0000E+00        4.5619E+04        1.5650E+03
        1.0350E-07        0.0000E+00        4.6304E+04        1.5880E+03
        1.0269E-07        0.0000E+00        4.7095E+04        1.5970E+03
        1.0188E-07        0.0000E+00        4.8297E+04        1.6010E+03
        1.0108E-07        0.0000E+00        5.0544E+04        1.6410E+03
        1.0029E-07        0.0000E+00        4.9767E+04        1.6360E+03
        9.9509E-08        0.0000E+00        5.3131E+04        1.6640E+03
        9.8737E-08        0.0000E+00        5.4293E+04        1.6690E+03
        9.7975E-08        0.0000E+00        5.4054E+04        1.6690E+03
        9.7221E-08        0.0000E+00        5.2530E+04        1.6530E+03
        9.6476E-08        0.0000E+00        5.3514E+04        1.6580E+03
        9.5740E-08        0.0000E+00        5.6518E+04        1.6900E+03
        9.5012E-08        0.0000E+00        5.6026E+04        1.6870E+03
        9.4292E-08        0.0000E+00        5.9851E+04        1.7280E+03
        9.3580E-08        0.0000E+00        5.7923E+04        1.7050E+03
        9.2877E-08        0.0000E+00        6.0761E+04        1.7270E+03
        9.2181E-08        0.0000E+00        6.0660E+04        1.7330E+03
        9.1493E-08        0.0000E+00        6.0297E+04        1.7340E+03
        9.0813E-08        0.0000E+00        6.3169E+04        1.7620E+03
        9.0140E-08        0.0000E+00        6.5490E+04        1.7990E+03
        8.9475E-08        0.0000E+00        6.5871E+04        1.8050E+03
        8.8817E-08        0.0000E+00        6.3919E+04        1.7720E+03
        8.8166E-08        0.0000E+00        6.8307E+04        1.8290E+03
        8.7523E-08        0.0000E+00        6.7196E+04        1.8260E+03
        8.6886E-08        0.0000E+00        6.9562E+04        1.8660E+03
        8.6257E-08        0.0000E+00        7.0025E+04        1.8750E+03
        8.5634E-08        0.0000E+00        7.1282E+04        1.8760E+03
        8.5018E-08        0.0000E+00        7.1830E+04        1.8850E+03
        8.4408E-08        0.0000E+00        7.3085E+04        1.8980E+03
        8.3806E-08        0.0000E+00        7.5063E+04        1.9230E+03
        8.3209E-08        0.0000E+00        7.3376E+04        1.9070E+03
        8.2619E-08        0.0000E+00        7.6103E+04        1.9380E+03
        8.2035E-08        0.0000E+00        7.7209E+04        1.9570E+03
        8.1457E-08        0.0000E+00        7.9471E+04        1.9890E+03
        8.0886E-08        0.0000E+00        7.9659E+04        2.0000E+03
        8.0320E-08        0.0000E+00        8.0363E+04        2.0080E+03
        7.9760E-08        0.0000E+00        8.2966E+04        2.0470E+03
        7.9207E-08        0.0000E+00        8.1453E+04        2.0120E+03
        7.8658E-08        0.0000E+00        8.5155E+04        2.0620E+03
        7.8116E-08        0.0000E+00        8.6267E+04        2.0860E+03
        7.7579E-08        0.0000E+00        8.4126E+04        2.0550E+03
        7.7048E-08        0.0000E+00        8.6641E+04        2.0890E+03
        7.6522E-08        0.0000E+00        8.8866E+04        2.1170E+03
        7.6001E-08        0.0000E+00        8.6777E+04        2.0880E+03
        7.5486E-08        0.0000E+00        9.0826E+04        2.1640E+03
        7.4976E-08        0.0000E+00        9.1547E+04        2.1890E+03
        7.4471E-08        0.0000E+00        9.1115E+04        2.1780E+03
        7.3971E-08        0.0000E+00        9.3420E+04        2.1980E+03
        7.3476E-08        0.0000E+00        9.4694E+04        2.2170E+03
        7.2987E-08        0.0000E+00        9.7226E+04        2.2600E+03
        7.2502E-08        0.0000E+00        9.7374E+04        2.2740E+03
        7.2021E-08        0.0000E+00        9.8002E+04        2.2810E+03
        7.1546E-08        0.0000E+00        9.9210E+04        2.3080E+03
        7.1075E-08        0.0000E+00        9.9429E+04        2.3010E+03
        7.0609E-08        0.0000E+00        1.0037E+05        2.3130E+03
        7.0148E-08        0.0000E+00        1.0027E+05        2.3110E+03
        6.9691E-08        0.0000E+00        1.0254E+05        2.3400E+03
        6.9238E-08        0.0000E+00        1.0420E+05        2.3630E+03
        6.8790E-08        0.0000E+00        1.0563E+05        2.3920E+03
        6.8346E-08        0.0000E+00        1.0702E+05        2.4230E+03
        6.7907E-08        0.0000E+00        1.0777E+05        2.4350E+03
        6.7472E-08        0.0000E+00        1.0885E+05        2.4480E+03
        6.7040E-08        0.0000E+00        1.1113E+05        2.5040E+03
        6.6613E-08        0.0000E+00        1.0865E+05        2.4750E+03
        6.6190E-08        0.0000E+00        1.1272E+05        2.5520E+03
        6.5772E-08        0.0000E+00        1.1293E+05        2.5390E+03
        6.5357E-08        0.0000E+00        1.1521E+05        2.5750E+03
        6.4946E-08        0.0000E+00        1.1472E+05        2.5710E+03
        6.4538E-08        0.0000E+00        1.1955E+05        2.6750E+03
        6.4135E-08        0.0000E+00        1.1743E+05        2.6520E+03
        6.3735E-08        0.0000E+00        1.1873E+05        2.6570E+03
        6.3339E-08        0.0000E+00        1.1939E+05        2.6590E+03
        6.2947E-08        0.0000E+00        1.2076E+05        2.6890E+03
        6.2559E-08        0.0000E+00        1.2181E+05        2.6990E+03
        6.2174E-08        0.0000E+00        1.2295E+05        2.7210E+03
        6.1792E-08        0.0000E+00        1.2451E+05        2.7680E+03
        6.1414E-08        0.0000E+00        1.2295E+05        2.7370E+03
        6.1040E-08        0.0000E+00        1.2773E+05        2.8190E+03
        6.0669E-08        0.0000E+00        1.2795E+05        2.8210E+03
        6.0301E-08        0.0000E+00        1.2864E+05        2.8310E+03
        5.9937E-08        0.0000E+00        1.2918E+05        2.8390E+03
        5.9576E-08        0.0000E+00        1.3093E+05        2.8680E+03
        5.9218E-08        0.0000E+00        1.3255E+05        2.9040E+03
        5.8863E-08        0.0000E+00        1.3217E+05        2.9050E+03
        5.8512E-08        0.0000E+00        1.3501E+05        2.9490E+03
        5.8164E-08        0.0000E+00        1.3761E+05        3.0030E+03
        5.7818E-08        0.0000E+00        1.3571E+05        2.9760E+03
        5.7476E-08        0.0000E+00        1.3667E+05        2.9970E+03
        5.7137E-08        0.0000E+00        1.3887E+05        3.0600E+03
        5.6801E-08        0.0000E+00        1.4081E+05        3.0860E+03
        5.6468E-08        0.0000E+00        1.4172E+05        3.0820E+03
        5.6138E-08        0.0000E+00        1.4054E+05        3.0530E+03
        5.5810E-08        0.0000E+00        1.4504E+05        3.1320E+03
        5.5486E-08        0.0000E+00        1.4389E+05        3.1250E+03
        5.5164E-08        0.0000E+00        1.4347E+05        3.1330E+03
        5.4845E-08        0.0000E+00        1.4457E+05        3.1450E+03
        5.4529E-08        0.0000E+00        1.4664E+05        3.1800E+03
        5.4216E-08        0.0000E+00        1.4786E+05        3.2100E+03
        5.3905E-08        0.0000E+00        1.5500E+05        3.3480E+03
        5.3597E-08        0.0000E+00        1.4907E+05        3.2280E+03
        5.3292E-08        0.0000E+00        1.4919E+05        3.2120E+03
        5.2989E-08        0.0000E+00        1.5404E+05        3.3170E+03
        5.2689E-08        0.0000E+00        1.5247E+05        3.3030E+03
        5.2391E-08        0.0000E+00        1.5315E+05        3.3220E+03
        5.2096E-08        0.0000E+00        1.5461E+05        3.3470E+03
        5.1803E-08        0.0000E+00        1.5535E+05        3.3430E+03
        5.1513E-08        0.0000E+00        1.5681E+05        3.3670E+03
        5.1225E-08        0.0000E+00        1.5782E+05        3.4000E+03
        5.0940E-08        0.0000E+00        1.5906E+05        3.4300E+03
        5.0657E-08        0.0000E+00        1.5764E+05        3.3980E+03
        5.0376E-08        0.0000E+00        1.6159E+05        3.4780E+03
        5.0098E-08        0.0000E+00        1.6108E+05        3.4550E+03
        4.9822E-08        0.0000E+00        1.6391E+05        3.4980E+03
        4.9548E-08        0.0000E+00        1.6440E+05        3.5010E+03
        4.9277E-08        0.0000E+00        1.6456E+05        3.5030E+03
        4.9007E-08        0.0000E+00        1.6723E+05        3.5590E+03
        4.8740E-08        0.0000E+00        1.6520E+05        3.5130E+03
        4.8475E-08        0.0000E+00        1.6831E+05        3.5720E+03
        4.8213E-08        0.0000E+00        1.6641E+05        3.5190E+03
        4.7952E-08        0.0000E+00        1.6859E+05        3.5640E+03
        4.7694E-08        0.0000E+00        1.7305E+05        3.6580E+03
        4.7437E-08        0.0000E+00        1.7634E+05        3.7710E+03
        4.7183E-08        0.0000E+00        1.7227E+05        3.7190E+03
        4.6931E-08        0.0000E+00        1.6989E+05        3.6770E+03
        4.6680E-08        0.0000E+00        1.7104E+05        3.6430E+03
        4.6432E-08        0.0000E+00        1.7600E+05        3.7410E+03
        4.6186E-08        0.0000E+00        1.7477E+05        3.7120E+03
        4.5941E-08        0.0000E+00        1.7321E+05        3.6610E+03
        4.5699E-08        0.0000E+00        1.7651E+05        3.7390E+03
        4.5458E-08        0.0000E+00        1.7821E+05        3.7710E+03
        4.5220E-08        0.0000E+00        1.7808E+05        3.7670E+03
        4.4983E-08        0.0000E+00        1.8046E+05        3.8250E+03
        4.4748E-08        0.0000E+00        1.8103E+05        3.8260E+03
        4.4515E-08        0.0000E+00        1.8605E+05        3.9270E+03
        4.4284E-08        0.0000E+00        1.8598E+05        3.9390E+03
        4.4054E-08        0.0000E+00        1.7575E+05        3.7520E+03
        4.3827E-08        0.0000E+00        1.8376E+05        3.8880E+03
        4.3601E-08        0.0000E+00        1.8564E+05        3.9020E+03
        4.3377E-08        0.0000E+00        1.8910E+05        3.9610E+03
        4.3154E-08        0.0000E+00        1.8568E+05        3.9170E+03
        4.2933E-08        0.0000E+00        1.8951E+05        3.9990E+03
        4.2714E-08        0.0000E+00        1.8550E+05        3.9170E+03
        4.2497E-08        0.0000E+00        1.9061E+05        4.0000E+03
        4.2281E-08        0.0000E+00        1.8871E+05        3.9600E+03
        4.2067E-08        0.0000E+00        1.9064E+05        3.9950E+03
        4.1855E-08        0.0000E+00        1.9333E+05        4.0590E+03
        4.1644E-08        0.0000E+00        1.9208E+05        4.0220E+03
        4.1435E-08        0.0000E+00        1.9340E+05        4.0680E+03
        4.1227E-08        0.0000E+00        1.9034E+05        3.9970E+03
        4.1021E-08        0.0000E+00        1.9480E+05        4.0930E+03
        4.0816E-08        0.0000E+00        1.9758E+05        4.1370E+03
        4.0613E-08        0.0000E+00        1.9576E+05        4.1110E+03
        4.0411E-08        0.0000E+00        1.9263E+05        4.0390E+03
        4.0211E-08        0.0000E+00        1.9686E+05        4.1110E+03
        4.0013E-08        0.0000E+00        2.0038E+05        4.2030E+03
        3.9816E-08        0.0000E+00        1.9506E+05        4.0870E+03
        3.9620E-08        0.0000E+00        2.0286E+05        4.2390E+03
        3.9426E-08        0.0000E+00        2.0088E+05        4.2150E+03
        3.9233E-08        0.0000E+00        1.9931E+05        4.1750E+03
        3.9042E-08        0.0000E+00        2.0373E+05        4.2520E+03
        3.8852E-08        0.0000E+00        2.0065E+05        4.1800E+03
        3.8663E-08        0.0000E+00        1.9966E+05        4.1590E+03
        3.8476E-08        0.0000E+00        2.0882E+05        4.3500E+03
        3.8290E-08        0.0000E+00        2.0840E+05        4.3480E+03
        3.8105E-08        0.0000E+00        2.0599E+05        4.3060E+03
        3.7922E-08        0.0000E+00        2.0398E+05        4.2660E+03
        3.7740E-08        0.0000E+00        2.0312E+05        4.2380E+03
        3.7560E-08        0.0000E+00        2.0269E+05        4.2230E+03
        3.7381E-08        0.0000E+00        2.0721E+05        4.3200E+03
        3.7203E-08        0.0000E+00        2.1097E+05        4.4050E+03
        3.7026E-08        0.0000E+00        2.0512E+05        4.2840E+03
        3.6850E-08        0.0000E+00        2.1150E+05        4.4010E+03
        3.6676E-08        0.0000E+00        2.0786E+05        4.3210E+03
        3.6503E-08        0.0000E+00        2.1077E+05        4.3870E+03
        3.6331E-08        0.0000E+00        2.0780E+05        4.3130E+03
        3.6161E-08        0.0000E+00        2.1234E+05        4.4050E+03
        3.5991E-08        0.0000E+00        2.1107E+05        4.3970E+03
        3.5823E-08        0.0000E+00        2.1019E+05        4.3770E+03
        3.5656E-08        0.0000E+00        2.1207E+05        4.3950E+03
        3.5490E-08        0.0000E+00        2.1487E+05        4.4360E+03
        3.5326E-08        0.0000E+00        2.2007E+05        4.5340E+03
        3.5162E-08        0.0000E+00        2.1684E+05        4.4830E+03
        3.5000E-08        0.0000E+00        2.1967E+05        4.5490E+03
        3.4838E-08        0.0000E+00        2.1560E+05        4.4700E+03
        3.4678E-08        0.0000E+00        2.1342E+05        4.4250E+03
        3.4519E-08        0.0000E+00        2.1667E+05        4.4850E+03
        3.4361E-08        0.0000E+00        2.2171E+05        4.5990E+03
        3.4204E-08        0.0000E+00        2.2038E+05        4.5770E+03
        3.4048E-08        0.0000E+00        2.2006E+05        4.5600E+03
        3.3894E-08        0.0000E+00        2.2191E+05        4.6210E+03
        3.3740E-08        0.0000E+00        2.1887E+05        4.5430E+03
        3.3587E-08        0.0000E+00        2.2428E+05        4.6560E+03
        3.3436E-08        0.0000E+00        2.1808E+05        4.5100E+03
        3.3285E-08        0.0000E+00        2.2598E+05        4.6600E+03
        3.3135E-08        0.0000E+00        2.1480E+05        4.4400E+03
        3.2987E-08        0.0000E+00        2.2012E+05        4.5410E+03
        3.2839E-08        0.0000E+00        2.3070E+05        4.7640E+03
        3.2693E-08        0.0000E+00        2.2688E+05        4.6850E+03
        3.2547E-08        0.0000E+00        2.2660E+05        4.6670E+03
        3.2402E-08        0.0000E+00        2.2116E+05        4.5450E+03
        3.2259E-08        0.0000E+00        2.2318E+05        4.5740E+03
        3.2116E-08        0.0000E+00        2.2646E+05        4.6280E+03
        3.1974E-08        0.0000E+00        2.2998E+05        4.7040E+03
        3.1833E-08        0.0000E+00        2.2613E+05        4.6400E+03
        3.1693E-08        0.0000E+00        2.2630E+05        4.6500E+03
        3.1554E-08        0.0000E+00        2.3619E+05        4.8730E+03
        3.1416E-08        0.0000E+00        2.3025E+05        4.7500E+03
        3.1279E-08        0.0000E+00        2.2919E+05        4.7160E+03
        3.1143E-08        0.0000E+00        2.2728E+05        4.6590E+03
        3.1007E-08        0.0000E+00        2.2912E+05        4.6770E+03
        3.0873E-08        0.0000E+00        2.3174E+05        4.7490E+03
        3.0739E-08        0.0000E+00        2.2979E+05        4.7010E+03
        3.0606E-08        0.0000E+00        2.3424E+05        4.7870E+03
        3.0475E-08        0.0000E+00        2.3399E+05        4.7920E+03
        3.0343E-08        0.0000E+00        2.2609E+05        4.6210E+03
        3.0213E-08        0.0000E+00        2.3119E+05        4.7170E+03
        3.0084E-08        0.0000E+00        2.3604E+05        4.8150E+03
        2.9955E-08        0.0000E+00        2.3473E+05        4.7920E+03
        2.9828E-08        0.0000E+00        2.3502E+05        4.8060E+03
        2.9701E-08        0.0000E+00        2.3168E+05        4.7140E+03
        2.9574E-08        0.0000E+00        2.3252E+05        4.7210E+03
        2.9449E-08        0.0000E+00        2.3258E+05        4.7190E+03
        2.9325E-08        0.0000E+00        2.3575E+05        4.7820E+03
        2.9201E-08        0.0000E+00        2.3736E+05        4.8120E+03
        2.9078E-08        0.0000E+00        2.3452E+05        4.7580E+03
        2.8956E-08        0.0000E+00        2.3237E+05        4.6890E+03
        2.8834E-08        0.0000E+00        2.3896E+05        4.8080E+03
        2.8714E-08        0.0000E+00        2.3850E+05        4.7980E+03
        2.8594E-08        0.0000E+00        2.4320E+05        4.8970E+03
        2.8475E-08        0.0000E+00        2.4193E+05        4.8820E+03
        2.8356E-08        0.0000E+00        2.4012E+05        4.8390E+03
        2.8239E-08        0.0000E+00        2.4594E+05        4.9690E+03
        2.8122E-08        0.0000E+00        2.4085E+05        4.8650E+03
        2.8006E-08        0.0000E+00        2.4174E+05        4.8760E+03
        2.7890E-08        0.0000E+00        2.3991E+05        4.8350E+03
        2.7775E-08        0.0000E+00        2.4357E+05        4.8920E+03
        2.7661E-08        0.0000E+00        2.3751E+05        4.7750E+03
        2.7548E-08        0.0000E+00        2.4539E+05        4.9360E+03
        2.7435E-08        0.0000E+00        2.4284E+05        4.8860E+03
        2.7323E-08        0.0000E+00        2.4448E+05        4.9220E+03
        2.7212E-08        0.0000E+00        2.4042E+05        4.8370E+03
        2.7101E-08        0.0000E+00        2.4255E+05        4.8750E+03
        2.6991E-08        0.0000E+00        2.4244E+05        4.8730E+03
        2.6882E-08        0.0000E+00        2.4815E+05        4.9730E+03
        2.6773E-08        0.0000E+00        2.4351E+05        4.8820E+03
        2.6665E-08        0.0000E+00        2.4280E+05        4.8660E+03
        2.6558E-08        0.0000E+00        2.4745E+05        4.9610E+03
        2.6452E-08        0.0000E+00        2.4356E+05        4.8820E+03
        2.6345E-08        0.0000E+00        2.5060E+05        5.0070E+03
        2.6240E-08        0.0000E+00        2.4893E+05        4.9870E+03
        2.6135E-08        0.0000E+00        2.4659E+05        4.9370E+03
        2.6031E-08        0.0000E+00        2.4639E+05        4.9260E+03
        2.5928E-08        0.0000E+00        2.4774E+05        4.9470E+03
        2.5825E-08        0.0000E+00        2.5090E+05        5.0040E+03
        2.5723E-08        0.0000E+00        2.4968E+05        4.9880E+03
        2.5621E-08        0.0000E+00        2.4742E+05        4.9390E+03
        2.5520E-08        0.0000E+00        2.4591E+05        4.9040E+03
        2.5419E-08        0.0000E+00        2.5393E+05        5.0540E+03
        2.5319E-08        0.0000E+00        2.5875E+05        5.1760E+03
        2.5220E-08        0.0000E+00        2.4703E+05        4.9370E+03
        2.5121E-08        0.0000E+00        2.4864E+05        4.9600E+03
        2.5023E-08        0.0000E+00        2.5458E+05        5.0800E+03
        2.4926E-08        0.0000E+00        2.5401E+05        5.0850E+03
        2.4829E-08        0.0000E+00        2.5428E+05        5.0940E+03
        2.4732E-08        0.0000E+00        2.4657E+05        4.9260E+03
        2.4637E-08        0.0000E+00        2.5138E+05        5.0010E+03
        2.4541E-08        0.0000E+00        2.5072E+05        4.9710E+03
        2.4446E-08        0.0000E+00        2.5465E+05        5.0600E+03
        2.4352E-08        0.0000E+00        2.5266E+05        5.0180E+03
        2.4259E-08        0.0000E+00        2.5315E+05        5.0180E+03
        2.4165E-08        0.0000E+00        2.5253E+05        4.9940E+03
        2.4073E-08        0.0000E+00        2.5683E+05        5.0720E+03
        2.3981E-08        0.0000E+00        2.5658E+05        5.0800E+03
        2.3889E-08        0.0000E+00        2.5566E+05        5.0640E+03
        2.3798E-08        0.0000E+00        2.5484E+05        5.0460E+03
        2.3708E-08        0.0000E+00        2.5243E+05        4.9830E+03
        2.3618E-08        0.0000E+00        2.5402E+05        4.9940E+03
        2.3528E-08        0.0000E+00        2.5848E+05        5.0830E+03
        2.3439E-08        0.0000E+00        2.5579E+05        5.0340E+03
        2.3351E-08        0.0000E+00        2.5624E+05        5.0340E+03
        2.3263E-08        0.0000E+00        2.5769E+05        5.0660E+03
        2.3176E-08        0.0000E+00        2.5847E+05        5.0920E+03
        2.3089E-08        0.0000E+00        2.5399E+05        4.9930E+03
        2.3002E-08        0.0000E+00        2.6048E+05        5.1160E+03
        2.2916E-08        0.0000E+00        2.6136E+05        5.1460E+03
        2.2831E-08        0.0000E+00        2.5307E+05        4.9810E+03
        2.2746E-08        0.0000E+00        2.6236E+05        5.1490E+03
        2.2661E-08        0.0000E+00        2.6492E+05        5.2080E+03
        2.2577E-08        0.0000E+00        2.5695E+05        5.0430E+03
        2.2493E-08        0.0000E+00        2.6140E+05        5.1310E+03
        2.2410E-08        0.0000E+00        2.5887E+05        5.0840E+03
        2.2327E-08        0.0000E+00        2.6207E+05        5.1510E+03
        2.2245E-08        0.0000E+00        2.5585E+05        5.0200E+03
        2.2163E-08        0.0000E+00        2.6116E+05        5.1120E+03
        2.2082E-08        0.0000E+00        2.5681E+05        5.0190E+03
        2.2001E-08        0.0000E+00        2.6452E+05        5.1650E+03
        2.1921E-08        0.0000E+00        2.7123E+05        5.3130E+03
        2.1841E-08        0.0000E+00        2.6024E+05        5.1030E+03
        2.1761E-08        0.0000E+00        2.6108E+05        5.1150E+03
        2.1682E-08        0.0000E+00        2.6105E+05        5.1040E+03
        2.1603E-08        0.0000E+00        2.6223E+05        5.1150E+03
        2.1525E-08        0.0000E+00        2.6191E+05        5.1030E+03
        2.1447E-08        0.0000E+00        2.6410E+05        5.1460E+03
        2.1370E-08        0.0000E+00        2.6867E+05        5.2430E+03
        2.1293E-08        0.0000E+00        2.6410E+05        5.1550E+03
        2.1216E-08        0.0000E+00        2.6199E+05        5.1080E+03
        2.1140E-08        0.0000E+00        2.6770E+05        5.2200E+03
        2.1064E-08        0.0000E+00        2.6680E+05        5.2060E+03
        2.0989E-08        0.0000E+00        2.6769E+05        5.2180E+03
        2.0914E-08        0.0000E+00        2.7615E+05        5.3980E+03
        2.0839E-08        0.0000E+00        2.6538E+05        5.1950E+03
        2.0765E-08        0.0000E+00        2.5980E+05        5.0700E+03
        2.0691E-08        0.0000E+00        2.6304E+05        5.1180E+03
        2.0618E-08        0.0000E+00        2.7024E+05        5.2560E+03
        2.0545E-08        0.0000E+00        2.6689E+05        5.1930E+03
        2.0473E-08        0.0000E+00        2.6279E+05        5.1040E+03
        2.0400E-08        0.0000E+00        2.6843E+05        5.2090E+03
        2.0328E-08        0.0000E+00        2.6853E+05        5.2110E+03
        2.0257E-08        0.0000E+00        2.6917E+05        5.2190E+03
        2.0186E-08        0.0000E+00        2.6487E+05        5.1260E+03
        2.0115E-08        0.0000E+00        2.6726E+05        5.1660E+03
        2.0045E-08        0.0000E+00        2.7234E+05        5.2620E+03
        1.9975E-08        0.0000E+00        2.7147E+05        5.2430E+03
        1.9905E-08        0.0000E+00        2.7370E+05        5.2880E+03
        1.9836E-08        0.0000E+00        2.6790E+05        5.1750E+03
        1.9767E-08        0.0000E+00        2.6759E+05        5.1630E+03
        1.9699E-08        0.0000E+00        2.7058E+05        5.2160E+03
        1.9631E-08        0.0000E+00        2.7405E+05        5.2820E+03
        1.9563E-08        0.0000E+00        2.7506E+05        5.3010E+03
        1.9495E-08        0.0000E+00        2.7067E+05        5.2130E+03
        1.9428E-08        0.0000E+00        2.7181E+05        5.2310E+03
        1.9361E-08        0.0000E+00        2.7913E+05        5.3780E+03
        1.9295E-08        0.0000E+00        2.7833E+05        5.3720E+03
        1.9229E-08        0.0000E+00        2.7515E+05        5.3110E+03
        1.9163E-08        0.0000E+00        2.7448E+05        5.3020E+03
        1.9098E-08        0.0000E+00        2.7163E+05        5.2380E+03
        1.9033E-08        0.0000E+00        2.6900E+05        5.1760E+03
        1.8968E-08        0.0000E+00        2.7214E+05        5.2310E+03
        1.8904E-08        0.0000E+00        2.7450E+05        5.2720E+03
        1.8839E-08        0.0000E+00        2.7653E+05        5.3140E+03
        1.8776E-08        0.0000E+00        2.7637E+05        5.3130E+03
        1.8712E-08        0.0000E+00        2.7787E+05        5.3430E+03
        1.8649E-08        0.0000E+00        2.7659E+05        5.3190E+03
        1.8586E-08        0.0000E+00        2.7746E+05        5.3390E+03
        1.8524E-08        0.0000E+00        2.7734E+05        5.3350E+03
        1.8462E-08        0.0000E+00        2.7301E+05        5.2430E+03
        1.8400E-08        0.0000E+00        2.6861E+05        5.1470E+03
        1.8338E-08        0.0000E+00        2.7615E+05        5.2900E+03
        1.8277E-08        0.0000E+00        2.7780E+05        5.3200E+03
        1.8216E-08        0.0000E+00        2.8180E+05        5.3980E+03
        1.8156E-08        0.0000E+00        2.8509E+05        5.4690E+03
        1.8095E-08        0.0000E+00        2.7821E+05        5.3390E+03
        1.8035E-08        0.0000E+00        2.7784E+05        5.3290E+03
        1.7976E-08        0.0000E+00        2.7547E+05        5.2760E+03
        1.7916E-08        0.0000E+00        2.8136E+05        5.3950E+03
        1.7857E-08        0.0000E+00        2.8228E+05        5.4150E+03
        1.7798E-08        0.0000E+00        2.7654E+05        5.2990E+03
        1.7740E-08        0.0000E+00        2.7805E+05        5.3240E+03
        1.7681E-08        0.0000E+00        2.7482E+05        5.2560E+03
        1.7623E-08        0.0000E+00        2.7464E+05        5.2450E+03
        1.7566E-08        0.0000E+00        2.8030E+05        5.3540E+03
        1.7508E-08        0.0000E+00        2.8053E+05        5.3580E+03
        1.7451E-08        0.0000E+00        2.7466E+05        5.2360E+03
        1.7394E-08        0.0000E+00        2.8652E+05        5.4680E+03
        1.7338E-08        0.0000E+00        2.7888E+05        5.3200E+03
        1.7281E-08        0.0000E+00        2.8252E+05        5.3870E+03
        1.7225E-08        0.0000E+00        2.8247E+05        5.3840E+03
        1.7170E-08        0.0000E+00        2.8455E+05        5.4220E+03
        1.7114E-08        0.0000E+00        2.8080E+05        5.3440E+03
        1.7059E-08        0.0000E+00        2.8414E+05        5.4050E+03
        1.7004E-08        0.0000E+00        2.8581E+05        5.4390E+03
        1.6949E-08        0.0000E+00        2.8540E+05        5.4350E+03
        1.6895E-08        0.0000E+00        2.8092E+05        5.3440E+03
        1.6841E-08        0.0000E+00        2.8172E+05        5.3530E+03
        1.6787E-08        0.0000E+00        2.8607E+05        5.4350E+03
        1.6733E-08        0.0000E+00        2.8361E+05        5.3870E+03
        1.6680E-08        0.0000E+00        2.9047E+05        5.5260E+03
        1.6627E-08        0.0000E+00        2.8963E+05        5.5170E+03
        1.6574E-08        0.0000E+00        2.8757E+05        5.4770E+03
        1.6521E-08        0.0000E+00        2.8412E+05        5.4080E+03
        1.6469E-08        0.0000E+00        2.8139E+05        5.3470E+03
        1.6417E-08        0.0000E+00        2.8395E+05        5.3920E+03
        1.6365E-08        0.0000E+00        2.8665E+05        5.4420E+03
        1.6313E-08        0.0000E+00        2.8316E+05        5.3690E+03
        1.6262E-08        0.0000E+00        2.8543E+05        5.4100E+03
        1.6211E-08        0.0000E+00        2.9095E+05        5.5210E+03
        1.6160E-08        0.0000E+00        2.8920E+05        5.4890E+03
        1.6109E-08        0.0000E+00        2.8540E+05        5.4120E+03
        1.6059E-08        0.0000E+00        2.9018E+05        5.5040E+03
        1.6009E-08        0.0000E+00        2.8888E+05        5.4800E+03
        1.5959E-08        0.0000E+00        2.8709E+05        5.4450E+03
        1.5909E-08        0.0000E+00        2.8555E+05        5.4110E+03
        1.5860E-08        0.0000E+00        2.8285E+05        5.3550E+03
        1.5810E-08        0.0000E+00        2.8655E+05        5.4230E+03
        1.5761E-08        0.0000E+00        2.8879E+05        5.4660E+03
        1.5712E-08        0.0000E+00        2.8930E+05        5.4750E+03
        1.5664E-08        0.0000E+00        2.8842E+05        5.4560E+03
        1.5616E-08        0.0000E+00        2.9083E+05        5.5020E+03
        1.5567E-08        0.0000E+00        2.9475E+05        5.5790E+03
        1.5520E-08        0.0000E+00        2.9189E+05        5.5250E+03
        1.5472E-08        0.0000E+00        2.8838E+05        5.4540E+03
        1.5424E-08        0.0000E+00        2.8834E+05        5.4520E+03
        1.5377E-08        0.0000E+00        2.9157E+05        5.5130E+03
        1.5330E-08        0.0000E+00        2.8901E+05        5.4610E+03
        1.5283E-08        0.0000E+00        2.9387E+05        5.5540E+03
        1.5237E-08        0.0000E+00        2.9724E+05        5.6220E+03
        1.5190E-08        0.0000E+00        2.9203E+05        5.5220E+03
        1.5144E-08        0.0000E+00        2.8914E+05        5.4640E+03
        1.5098E-08        0.0000E+00        2.9031E+05        5.4840E+03
        1.5052E-08        0.0000E+00        2.9653E+05        5.6040E+03
        1.5007E-08        0.0000E+00        2.9802E+05        5.6370E+03
        1.4962E-08        0.0000E+00        2.9257E+05        5.5320E+03
        1.4916E-08        0.0000E+00        2.8859E+05        5.4520E+03
        1.4871E-08        0.0000E+00        2.8904E+05        5.4550E+03
        1.4827E-08        0.0000E+00        2.9296E+05        5.5280E+03
        1.4782E-08        0.0000E+00        2.9469E+05        5.5610E+03
        1.4738E-08        0.0000E+00        2.9902E+05        5.6480E+03
        1.4694E-08        0.0000E+00        2.9760E+05        5.6220E+03
        1.4650E-08        0.0000E+00        2.9644E+05        5.5990E+03
        1.4606E-08        0.0000E+00        2.9363E+05        5.5430E+03
        1.4563E-08        0.0000E+00        2.9530E+05        5.5740E+03
        1.4519E-08        0.0000E+00        2.9944E+05        5.6560E+03
        1.4476E-08        0.0000E+00        2.9469E+05        5.5630E+03
        1.4433E-08        0.0000E+00        2.9311E+05        5.5290E+03
        1.4390E-08        0.0000E+00        2.9010E+05        5.4670E+03
        1.4348E-08        0.0000E+00        2.9326E+05        5.5250E+03
        1.4305E-08        0.0000E+00        2.9818E+05        5.6190E+03
        1.4263E-08        0.0000E+00        2.9748E+05        5.6050E+03
        1.4221E-08        0.0000E+00        2.9979E+05        5.6490E+03
        1.4179E-08        0.0000E+00        2.9801E+05        5.6140E+03
        1.4138E-08        0.0000E+00        2.9950E+05        5.6440E+03
        1.4096E-08        0.0000E+00        2.9748E+05        5.6050E+03
        1.4055E-08        0.0000E+00        3.0044E+05        5.6620E+03
        1.4014E-08        0.0000E+00        2.9656E+05        5.5850E+03
        1.3973E-08        0.0000E+00        2.9737E+05        5.6000E+03
        1.3932E-08        0.0000E+00        2.9804E+05        5.6130E+03
        1.3892E-08        0.0000E+00        3.0082E+05        5.6660E+03
        1.3851E-08        0.0000E+00        3.0330E+05        5.7140E+03
        1.3811E-08        0.0000E+00        3.0253E+05        5.7000E+03
        1.3771E-08        0.0000E+00        3.0123E+05        5.6760E+03
        1.3731E-08        0.0000E+00        2.9948E+05        5.6410E+03
        1.3692E-08        0.0000E+00        2.9714E+05        5.5930E+03
        1.3652E-08        0.0000E+00        2.9810E+05        5.6100E+03
        1.3613E-08        0.0000E+00        2.9978E+05        5.6420E+03
        1.3574E-08        0.0000E+00        3.0392E+05        5.7230E+03
        1.3535E-08        0.0000E+00        3.0211E+05        5.6890E+03
        1.3496E-08        0.0000E+00        3.0224E+05        5.6910E+03
        1.3457E-08        0.0000E+00        3.0070E+05        5.6600E+03
        1.3418E-08        0.0000E+00        3.0214E+05        5.6870E+03
        1.3380E-08        0.0000E+00        2.9972E+05        5.6390E+03
        1.3342E-08        0.0000E+00        3.0644E+05        5.7700E+03
        1.3304E-08        0.0000E+00        3.0218E+05        5.6870E+03
        1.3266E-08        0.0000E+00        3.0469E+05        5.7360E+03
        1.3228E-08        0.0000E+00        3.0609E+05        5.7640E+03
        1.3191E-08        0.0000E+00        3.0911E+05        5.8230E+03
        1.3154E-08        0.0000E+00        3.0678E+05        5.7790E+03
        1.3116E-08        0.0000E+00        3.0529E+05        5.7490E+03
        1.3079E-08        0.0000E+00        3.0260E+05        5.6960E+03
        1.3042E-08        0.0000E+00        3.0603E+05        5.7630E+03
        1.3006E-08        0.0000E+00        3.0804E+05        5.8030E+03
        1.2969E-08        0.0000E+00        3.1053E+05        5.8520E+03
        1.2933E-08        0.0000E+00        3.0854E+05        5.8140E+03
        1.2896E-08        0.0000E+00        3.0284E+05        5.7020E+03
        1.2860E-08        0.0000E+00        3.0161E+05        5.6760E+03
        1.2824E-08        0.0000E+00        3.0073E+05        5.6570E+03
        1.2788E-08        0.0000E+00        3.0538E+05        5.7470E+03
        1.2753E-08        0.0000E+00        3.0932E+05        5.8240E+03
        1.2717E-08        0.0000E+00        3.1143E+05        5.8660E+03
        1.2682E-08        0.0000E+00        3.0910E+05        5.8210E+03
        1.2647E-08        0.0000E+00        3.1093E+05        5.8570E+03
        1.2612E-08        0.0000E+00        3.1181E+05        5.8750E+03
        1.2577E-08        0.0000E+00        3.0692E+05        5.7800E+03
        1.2542E-08        0.0000E+00        3.0723E+05        5.7850E+03
        1.2507E-08        0.0000E+00        3.0355E+05        5.7120E+03
        1.2473E-08        0.0000E+00        3.0672E+05        5.7730E+03
        1.2438E-08        0.0000E+00        3.1071E+05        5.8510E+03
        1.2404E-08        0.0000E+00        3.1159E+05        5.8680E+03
        1.2370E-08        0.0000E+00        3.1048E+05        5.8470E+03
        1.2336E-08        0.0000E+00        3.0952E+05        5.8280E+03
        1.2302E-08        0.0000E+00        3.1269E+05        5.8900E+03
        1.2269E-08        0.0000E+00        3.1508E+05        5.9380E+03
        1.2235E-08        0.0000E+00        3.1487E+05        5.9350E+03
        1.2202E-08        0.0000E+00        3.1436E+05        5.9260E+03
        1.2168E-08        0.0000E+00        3.0762E+05        5.7930E+03
        1.2135E-08        0.0000E+00        3.0832E+05        5.8060E+03
        1.2102E-08        0.0000E+00        3.0928E+05        5.8230E+03
        1.2070E-08        0.0000E+00        3.0839E+05        5.8050E+03
        1.2037E-08        0.0000E+00        3.0745E+05        5.7860E+03
        1.2004E-08        0.0000E+00        3.0894E+05        5.8140E+03
        1.1972E-08        0.0000E+00        3.1513E+05        5.9360E+03
        1.1940E-08        0.0000E+00        3.2094E+05        6.0510E+03
        1.1907E-08        0.0000E+00        3.1742E+05        5.9830E+03
        1.1875E-08        0.0000E+00        3.1487E+05        5.9330E+03
        1.1843E-08        0.0000E+00        3.1130E+05        5.8630E+03
        1.1812E-08        0.0000E+00        3.1091E+05        5.8550E+03
        1.1780E-08        0.0000E+00        3.1113E+05        5.8580E+03
        1.1748E-08        0.0000E+00        3.1633E+05        5.9600E+03
        1.1717E-08        0.0000E+00        3.1795E+05        5.9920E+03
        1.1686E-08        0.0000E+00        3.1606E+05        5.9550E+03
        1.1654E-08        0.0000E+00        3.1656E+05        5.9650E+03
        1.1623E-08        0.0000E+00        3.1327E+05        5.9000E+03
        1.1593E-08        0.0000E+00        3.1457E+05        5.9240E+03
        1.1562E-08        0.0000E+00        3.1610E+05        5.9540E+03
        1.1531E-08        0.0000E+00        3.1795E+05        5.9910E+03
        1.1501E-08        0.0000E+00        3.1792E+05        5.9910E+03
        1.1470E-08        0.0000E+00        3.1857E+05        6.0040E+03
        1.1440E-08        0.0000E+00        3.1745E+05        5.9820E+03
        1.1410E-08        0.0000E+00        3.2269E+05        6.0860E+03
        1.1380E-08        0.0000E+00        3.1917E+05        6.0170E+03
        1.1350E-08        0.0000E+00        3.1687E+05        5.9710E+03
        1.1320E-08        0.0000E+00        3.1694E+05        5.9720E+03
        1.1290E-08        0.0000E+00        3.1941E+05        6.0200E+03
        1.1260E-08        0.0000E+00        3.2363E+05        6.1030E+03
        1.1231E-08        0.0000E+00        3.2147E+05        6.0610E+03
        1.1202E-08        0.0000E+00        3.2431E+05        6.1170E+03
        1.1172E-08        0.0000E+00        3.2267E+05        6.0860E+03
        1.1143E-08        0.0000E+00        3.2569E+05        6.1470E+03
        1.1114E-08        0.0000E+00        3.2017E+05        6.0380E+03
        1.1085E-08        0.0000E+00        3.1841E+05        6.0030E+03
        1.1057E-08        0.0000E+00        3.2029E+05        6.0380E+03
        1.1028E-08        0.0000E+00        3.2145E+05        6.0610E+03
        1.0999E-08        0.0000E+00        3.2197E+05        6.0720E+03
        1.0971E-08        0.0000E+00        3.2346E+05        6.1010E+03
        1.0942E-08        0.0000E+00        3.2313E+05        6.0950E+03
        1.0914E-08        0.0000E+00        3.2064E+05        6.0460E+03
        1.0886E-08        0.0000E+00        3.2468E+05        6.1250E+03
        1.0858E-08        0.0000E+00        3.2437E+05        6.1190E+03
        1.0830E-08        0.0000E+00        3.2669E+05        6.1650E+03
        1.0802E-08        0.0000E+00        3.2800E+05        6.1920E+03
        1.0775E-08        0.0000E+00        3.3154E+05        6.2640E+03
        1.0747E-08        0.0000E+00        3.2700E+05        6.1750E+03
        1.0720E-08        0.0000E+00        3.2225E+05        6.0810E+03
        1.0692E-08        0.0000E+00        3.2266E+05        6.0880E+03
        1.0665E-08        0.0000E+00        3.2337E+05        6.1020E+03
        1.0638E-08        0.0000E+00        3.2650E+05        6.1630E+03
        1.0611E-08        0.0000E+00        3.2324E+05        6.0990E+03
        1.0584E-08        0.0000E+00        3.2692E+05        6.1710E+03
        1.0557E-08        0.0000E+00        3.2369E+05        6.1070E+03
        1.0530E-08        0.0000E+00        3.2426E+05        6.1180E+03
        1.0503E-08        0.0000E+00        3.2724E+05        6.1760E+03
        1.0477E-08        0.0000E+00        3.2932E+05        6.2180E+03
        1.0450E-08        0.0000E+00        3.2873E+05        6.2080E+03
        1.0424E-08        0.0000E+00        3.2858E+05        6.2050E+03
        1.0398E-08        0.0000E+00        3.2384E+05        6.1120E+03
        1.0372E-08        0.0000E+00        3.2708E+05        6.1760E+03
        1.0346E-08        0.0000E+00        3.3187E+05        6.2710E+03
        1.0320E-08        0.0000E+00        3.3558E+05        6.3460E+03
        1.0294E-08        0.0000E+00        3.3095E+05        6.2550E+03
        1.0268E-08        0.0000E+00        3.2966E+05        6.2300E+03
        1.0242E-08        0.0000E+00        3.2211E+05        6.0790E+03
        1.0217E-08        0.0000E+00        3.2558E+05        6.1460E+03
        1.0191E-08        0.0000E+00        3.3131E+05        6.2590E+03
        1.0166E-08        0.0000E+00        3.3328E+05        6.3000E+03
        1.0141E-08        0.0000E+00        3.3225E+05        6.2800E+03
        1.0115E-08        0.0000E+00        3.3346E+05        6.3050E+03
        1.0090E-08        0.0000E+00        3.3218E+05        6.2790E+03
        1.0065E-08        0.0000E+00        3.2772E+05        6.1910E+03
        1.0040E-08        0.0000E+00        3.2945E+05        6.2240E+03
        1.0016E-08        0.0000E+00        3.3240E+05        6.2820E+03
        9.9910E-09        0.0000E+00        3.3278E+05        6.2900E+03
        9.9660E-09        0.0000E+00        3.3075E+05        6.2490E+03
        9.9420E-09        0.0000E+00        3.2712E+05        6.1760E+03
        9.9170E-09        0.0000E+00        3.2910E+05        6.2140E+03
        9.8930E-09        0.0000E+00        3.3433E+05        6.3170E+03
        9.8690E-09        0.0000E+00        3.3490E+05        6.3280E+03
        9.8440E-09        0.0000E+00        3.3419E+05        6.3140E+03
        9.8200E-09        0.0000E+00        3.2992E+05        6.2290E+03
        9.7960E-09        0.0000E+00        3.3074E+05        6.2450E+03
        9.7720E-09        0.0000E+00        3.3230E+05        6.2750E+03
        9.7490E-09        0.0000E+00        3.3573E+05        6.3430E+03
        9.7250E-09        0.0000E+00        3.3592E+05        6.3470E+03
        9.7010E-09        0.0000E+00        3.3806E+05        6.3900E+03
        9.6780E-09        0.0000E+00        3.3953E+05        6.4200E+03
        9.6540E-09        0.0000E+00        3.3336E+05        6.2980E+03
        9.6310E-09        0.0000E+00        3.3680E+05        6.3660E+03
        9.6070E-09        0.0000E+00        3.3664E+05        6.3630E+03
        9.5840E-09        0.0000E+00        3.3797E+05        6.3890E+03
        9.5610E-09        0.0000E+00        3.3583E+05        6.3470E+03
        9.5380E-09        0.0000E+00        3.3313E+05        6.2930E+03
        9.5150E-09        0.0000E+00        3.3353E+05        6.3010E+03
        9.4920E-09        0.0000E+00        3.3339E+05        6.2970E+03
        9.4690E-09        0.0000E+00        3.3708E+05        6.3700E+03
        9.4460E-09        0.0000E+00        3.3766E+05        6.3810E+03
        9.4240E-09        0.0000E+00        3.3893E+05        6.4070E+03
        9.4010E-09        0.0000E+00        3.3978E+05        6.4240E+03
        9.3790E-09        0.0000E+00        3.3688E+05        6.3670E+03
        9.3560E-09        0.0000E+00        3.3759E+05        6.3810E+03
        9.3340E-09        0.0000E+00        3.3869E+05        6.4020E+03
        9.3120E-09        0.0000E+00        3.4391E+05        6.5070E+03
        9.2900E-09        0.0000E+00        3.4139E+05        6.4570E+03
        9.2670E-09        0.0000E+00        3.3912E+05        6.4120E+03
        9.2450E-09        0.0000E+00        3.4028E+05        6.4350E+03
        9.2240E-09        0.0000E+00        3.3866E+05        6.4020E+03
        9.2020E-09        0.0000E+00        3.3390E+05        6.3080E+03
        9.1800E-09        0.0000E+00        3.3312E+05        6.2910E+03
        9.1580E-09        0.0000E+00        3.3617E+05        6.3500E+03
        9.1370E-09        0.0000E+00        3.3766E+05        6.3790E+03
        9.1150E-09        0.0000E+00        3.4226E+05        6.4710E+03
        9.0940E-09        0.0000E+00        3.3857E+05        6.3970E+03
        9.0720E-09        0.0000E+00        3.3911E+05        6.4070E+03
        9.0510E-09        0.0000E+00        3.4137E+05        6.4520E+03
        9.0300E-09        0.0000E+00        3.4152E+05        6.4550E+03
        9.0080E-09        0.0000E+00        3.4289E+05        6.4820E+03
        8.9870E-09        0.0000E+00        3.4267E+05        6.4770E+03
        8.9660E-09        0.0000E+00        3.4460E+05        6.5160E+03
        8.9450E-09        0.0000E+00        3.4709E+05        6.5660E+03
        8.9240E-09        0.0000E+00        3.4813E+05        6.5870E+03
        8.9040E-09        0.0000E+00        3.4436E+05        6.5120E+03
        8.8830E-09        0.0000E+00        3.4559E+05        6.5370E+03
        8.8620E-09        0.0000E+00        3.4501E+05        6.5250E+03
        8.8420E-09        0.0000E+00        3.4517E+05        6.5280E+03
        8.8210E-09        0.0000E+00        3.4565E+05        6.5380E+03
        8.8010E-09        0.0000E+00        3.4715E+05        6.5680E+03
        8.7800E-09        0.0000E+00        3.4908E+05        6.6070E+03
        8.7600E-09        0.0000E+00        3.4892E+05        6.6040E+03
        8.7400E-09        0.0000E+00        3.4539E+05        6.5340E+03
        8.7200E-09        0.0000E+00        3.4364E+05        6.4990E+03
        8.7000E-09        0.0000E+00        3.4710E+05        6.5670E+03
        8.6800E-09        0.0000E+00        3.4623E+05        6.5500E+03
        8.6600E-09        0.0000E+00        3.4683E+05        6.5620E+03
        8.6400E-09        0.0000E+00        3.4767E+05        6.5790E+03
        8.6200E-09        0.0000E+00        3.4652E+05        6.5560E+03
        8.6000E-09        0.0000E+00        3.5043E+05        6.6340E+03
        8.5800E-09        0.0000E+00        3.4795E+05        6.5850E+03
        8.5610E-09        0.0000E+00        3.5051E+05        6.6360E+03
        8.5410E-09        0.0000E+00        3.5102E+05        6.6470E+03
        8.5220E-09        0.0000E+00        3.4729E+05        6.5720E+03
        8.5020E-09        0.0000E+00        3.4750E+05        6.5760E+03
        8.4830E-09        0.0000E+00        3.4913E+05        6.6090E+03
        8.4640E-09        0.0000E+00        3.5120E+05        6.6500E+03
        8.4450E-09        0.0000E+00        3.5122E+05        6.6510E+03
        8.4250E-09        0.0000E+00        3.4946E+05        6.6160E+03
        8.4060E-09        0.0000E+00        3.4778E+05        6.5820E+03
        8.3870E-09        0.0000E+00        3.5382E+05        6.7030E+03
        8.3680E-09        0.0000E+00        3.5211E+05        6.6680E+03
        8.3490E-09        0.0000E+00        3.5333E+05        6.6930E+03
        8.3310E-09        0.0000E+00        3.5357E+05        6.6980E+03
        8.3120E-09        0.0000E+00        3.5247E+05        6.6760E+03
        8.2930E-09        0.0000E+00        3.5249E+05        6.6760E+03
        8.2750E-09        0.0000E+00        3.5329E+05        6.6930E+03
        8.2560E-09        0.0000E+00        3.5271E+05        6.6810E+03
        8.2370E-09        0.0000E+00        3.5423E+05        6.7120E+03
        8.2190E-09        0.0000E+00        3.5502E+05        6.7280E+03
        8.2010E-09        0.0000E+00        3.5841E+05        6.7970E+03
        8.1820E-09        0.0000E+00        3.5591E+05        6.7470E+03
        8.1640E-09        0.0000E+00        3.5442E+05        6.7190E+03
        8.1460E-09        0.0000E+00        3.5361E+05        6.7020E+03
        8.1280E-09        0.0000E+00        3.4998E+05        6.6290E+03
        8.1100E-09        0.0000E+00        3.5250E+05        6.6790E+03
        8.0920E-09        0.0000E+00        3.5485E+05        6.7260E+03
        8.0740E-09        0.0000E+00        3.5742E+05        6.7780E+03
        8.0560E-09        0.0000E+00        3.5985E+05        6.8270E+03
        8.0380E-09        0.0000E+00        3.5444E+05        6.7190E+03
        8.0200E-09        0.0000E+00        3.5666E+05        6.7630E+03
        8.0020E-09        0.0000E+00        3.5531E+05        6.7360E+03
        7.9850E-09        0.0000E+00        3.5288E+05        6.6880E+03
        7.9670E-09        0.0000E+00        3.5698E+05        6.7690E+03
        7.9500E-09        0.0000E+00        3.5531E+05        6.7350E+03
        7.9320E-09        0.0000E+00        3.5860E+05        6.8010E+03
        7.9150E-09        0.0000E+00        3.5926E+05        6.8140E+03
        7.8970E-09        0.0000E+00        3.5577E+05        6.7440E+03
        7.8800E-09        0.0000E+00        3.5846E+05        6.7980E+03
        7.8630E-09        0.0000E+00        3.5792E+05        6.7870E+03
        7.8450E-09        0.0000E+00        3.5904E+05        6.8100E+03
        7.8280E-09        0.0000E+00        3.5944E+05        6.8180E+03
        7.8110E-09        0.0000E+00        3.5837E+05        6.7970E+03
        7.7940E-09        0.0000E+00        3.5974E+05        6.8240E+03
        7.7770E-09        0.0000E+00        3.6023E+05        6.8350E+03
        7.7600E-09        0.0000E+00        3.5708E+05        6.7720E+03
        7.7430E-09        0.0000E+00        3.6318E+05        6.8940E+03
        7.7270E-09        0.0000E+00        3.6413E+05        6.9140E+03
        7.7100E-09        0.0000E+00        3.6477E+05        6.9280E+03
        7.6930E-09        0.0000E+00        3.6651E+05        6.9630E+03
        7.6760E-09        0.0000E+00        3.6310E+05        6.8950E+03
        7.6600E-09        0.0000E+00        3.5932E+05        6.8200E+03
        7.6430E-09        0.0000E+00        3.6172E+05        6.8680E+03
        7.6270E-09        0.0000E+00        3.6129E+05        6.8590E+03
        7.6100E-09        0.0000E+00        3.6506E+05        6.9350E+03
        7.5940E-09        0.0000E+00        3.6489E+05        6.9320E+03
        7.5780E-09        0.0000E+00        3.6450E+05        6.9250E+03
        7.5610E-09        0.0000E+00        3.6552E+05        6.9460E+03
        7.5450E-09        0.0000E+00        3.6618E+05        6.9590E+03
        7.5290E-09        0.0000E+00        3.6652E+05        6.9670E+03
        7.5130E-09        0.0000E+00        3.6623E+05        6.9620E+03
        7.4970E-09        0.0000E+00        3.6562E+05        6.9500E+03
        7.4810E-09        0.0000E+00        3.6471E+05        6.9320E+03
        7.4650E-09        0.0000E+00        3.6776E+05        6.9940E+03
        7.4490E-09        0.0000E+00        3.7038E+05        7.0480E+03
        7.4330E-09        0.0000E+00        3.6642E+05        6.9700E+03
        7.4170E-09        0.0000E+00        3.6819E+05        7.0060E+03
        7.4010E-09        0.0000E+00        3.6526E+05        6.9460E+03
        7.3860E-09        0.0000E+00        3.6806E+05        7.0030E+03
        7.3700E-09        0.0000E+00        3.6692E+05        6.9790E+03
        7.3540E-09        0.0000E+00        3.6935E+05        7.0270E+03
        7.3390E-09        0.0000E+00        3.6537E+05        6.9470E+03
        7.3230E-09        0.0000E+00        3.6687E+05        6.9770E+03
        7.3080E-09        0.0000E+00        3.6811E+05        7.0020E+03
        7.2930E-09        0.0000E+00        3.7000E+05        7.0400E+03
        7.2770E-09        0.0000E+00        3.6499E+05        6.9380E+03
        7.2620E-09        0.0000E+00        3.6570E+05        6.9520E+03
        7.2470E-09        0.0000E+00        3.6546E+05        6.9470E+03
        7.2310E-09        0.0000E+00        3.6877E+05        7.0120E+03
        7.2160E-09        0.0000E+00        3.6914E+05        7.0200E+03
        7.2010E-09        0.0000E+00        3.6819E+05        7.0010E+03
        7.1860E-09        0.0000E+00        3.6943E+05        7.0260E+03
        7.1710E-09        0.0000E+00        3.7101E+05        7.0580E+03
        7.1560E-09        0.0000E+00        3.7003E+05        7.0370E+03
        7.1410E-09        0.0000E+00        3.7339E+05        7.1050E+03
        7.1260E-09        0.0000E+00        3.7469E+05        7.1320E+03
        7.1110E-09        0.0000E+00        3.7503E+05        7.1410E+03
        7.0960E-09        0.0000E+00        3.7510E+05        7.1430E+03
        7.0820E-09        0.0000E+00        3.7238E+05        7.0890E+03
        7.0670E-09        0.0000E+00        3.7440E+05        7.1300E+03
        7.0520E-09        0.0000E+00        3.6990E+05        7.0390E+03
        7.0380E-09        0.0000E+00        3.7023E+05        7.0450E+03
        7.0230E-09        0.0000E+00        3.7451E+05        7.1310E+03
        7.0090E-09        0.0000E+00        3.7609E+05        7.1630E+03
        6.9940E-09        0.0000E+00        3.7738E+05        7.1900E+03
        6.9800E-09        0.0000E+00        3.7600E+05        7.1630E+03
        6.9650E-09        0.0000E+00        3.7625E+05        7.1680E+03
        6.9510E-09        0.0000E+00        3.7403E+05        7.1240E+03
        6.9370E-09        0.0000E+00        3.7230E+05        7.0890E+03
        6.9220E-09        0.0000E+00        3.7396E+05        7.1220E+03
        6.9080E-09        0.0000E+00        3.7332E+05        7.1090E+03
        6.8940E-09        0.0000E+00        3.7416E+05        7.1260E+03
        6.8800E-09        0.0000E+00        3.7555E+05        7.1540E+03
        6.8660E-09        0.0000E+00        3.7951E+05        7.2350E+03
        6.8520E-09        0.0000E+00        3.7976E+05        7.2420E+03
        6.8380E-09        0.0000E+00        3.8721E+05        7.3950E+03
        6.8240E-09        0.0000E+00        3.7768E+05        7.2040E+03
        6.8100E-09        0.0000E+00        3.7798E+05        7.2110E+03
        6.7960E-09        0.0000E+00        3.7322E+05        7.1150E+03
        6.7820E-09        0.0000E+00        3.7295E+05        7.1080E+03
        6.7680E-09        0.0000E+00        3.7459E+05        7.1400E+03
        6.7550E-09        0.0000E+00        3.7927E+05        7.2350E+03
        6.7410E-09        0.0000E+00        3.7909E+05        7.2310E+03
        6.7270E-09        0.0000E+00        3.8024E+05        7.2560E+03
        6.7140E-09        0.0000E+00        3.8182E+05        7.2880E+03
        6.7000E-09        0.0000E+00        3.7735E+05        7.1980E+03
        6.6870E-09        0.0000E+00        3.7700E+05        7.1900E+03
        6.6730E-09        0.0000E+00        3.8086E+05        7.2680E+03
        6.6600E-09        0.0000E+00        3.7818E+05        7.2140E+03
        6.6460E-09        0.0000E+00        3.8031E+05        7.2570E+03
        6.6330E-09        0.0000E+00        3.8037E+05        7.2580E+03
        6.6200E-09        0.0000E+00        3.8078E+05        7.2660E+03
        6.6060E-09        0.0000E+00        3.7894E+05        7.2290E+03
        6.5930E-09        0.0000E+00        3.8185E+05        7.2870E+03
        6.5800E-09        0.0000E+00        3.8339E+05        7.3200E+03
        6.5670E-09        0.0000E+00        3.8772E+05        7.4100E+03
        6.5530E-09        0.0000E+00        3.8174E+05        7.2890E+03
        6.5400E-09        0.0000E+00        3.8502E+05        7.3550E+03
        6.5270E-09        0.0000E+00        3.8169E+05        7.2870E+03
        6.5140E-09        0.0000E+00        3.7959E+05        7.2440E+03
        6.5010E-09        0.0000E+00        3.8020E+05        7.2560E+03
        6.4880E-09        0.0000E+00        3.8486E+05        7.3500E+03
        6.4750E-09        0.0000E+00        3.8199E+05        7.2920E+03
        6.4630E-09        0.0000E+00        3.8439E+05        7.3400E+03
        6.4500E-09        0.0000E+00        3.8389E+05        7.3310E+03
        6.4370E-09        0.0000E+00        3.8494E+05        7.3520E+03
        6.4240E-09        0.0000E+00        3.8257E+05        7.3030E+03
        6.4120E-09        0.0000E+00        3.8224E+05        7.2960E+03
        6.3990E-09        0.0000E+00        3.8349E+05        7.3220E+03
        6.3860E-09        0.0000E+00        3.8582E+05        7.3690E+03
        6.3740E-09        0.0000E+00        3.8463E+05        7.3450E+03
        6.3610E-09        0.0000E+00        3.8679E+05        7.3900E+03
        6.3490E-09        0.0000E+00        3.9101E+05        7.4770E+03
        6.3360E-09        0.0000E+00        3.9599E+05        7.5820E+03
        6.3240E-09        0.0000E+00        3.9719E+05        7.6110E+03
        6.3110E-09        0.0000E+00        3.9405E+05        7.5500E+03
        6.2990E-09        0.0000E+00        3.8749E+05        7.4170E+03
        6.2870E-09        0.0000E+00        3.8512E+05        7.3680E+03
        6.2740E-09        0.0000E+00        3.8386E+05        7.3400E+03
        6.2620E-09        0.0000E+00        3.8648E+05        7.3910E+03
        6.2500E-09        0.0000E+00        3.8674E+05        7.3970E+03
        6.2380E-09        0.0000E+00        3.9523E+05        7.5730E+03
        6.2250E-09        0.0000E+00        3.9506E+05        7.5720E+03
        6.2130E-09        0.0000E+00        3.9147E+05        7.4990E+03
        6.2010E-09        0.0000E+00        3.8717E+05        7.4110E+03
        6.1890E-09        0.0000E+00        3.8616E+05        7.3880E+03
        6.1770E-09        0.0000E+00        3.8957E+05        7.4570E+03
        6.1650E-09        0.0000E+00        3.9070E+05        7.4790E+03
        6.1530E-09        0.0000E+00        3.8880E+05        7.4400E+03
        6.1410E-09        0.0000E+00        3.9204E+05        7.5070E+03
        6.1290E-09        0.0000E+00        3.9099E+05        7.4870E+03
        6.1180E-09        0.0000E+00        3.9095E+05        7.4860E+03
        6.1060E-09        0.0000E+00        3.9204E+05        7.5090E+03
        6.0940E-09        0.0000E+00        3.9669E+05        7.6050E+03
        6.0820E-09        0.0000E+00        3.9177E+05        7.5050E+03
        6.0700E-09        0.0000E+00        3.9346E+05        7.5390E+03
        6.0590E-09        0.0000E+00        3.9506E+05        7.5720E+03
        6.0470E-09        0.0000E+00        3.9004E+05        7.4690E+03
        6.0360E-09        0.0000E+00        3.9359E+05        7.5400E+03
        6.0240E-09        0.0000E+00        3.9161E+05        7.4980E+03
        6.0120E-09        0.0000E+00        3.9448E+05        7.5570E+03
        6.0010E-09        0.0000E+00        3.9607E+05        7.5890E+03
        5.9890E-09        0.0000E+00        3.9377E+05        7.5430E+03
        5.9780E-09        0.0000E+00        3.9695E+05        7.6080E+03
        5.9670E-09        0.0000E+00        3.9875E+05        7.6450E+03
        5.9550E-09        0.0000E+00        3.9817E+05        7.6330E+03
        5.9440E-09        0.0000E+00        3.9432E+05        7.5560E+03
        5.9330E-09        0.0000E+00        3.9668E+05        7.6040E+03
        5.9210E-09        0.0000E+00        3.9979E+05        7.6690E+03
        5.9100E-09        0.0000E+00        3.9442E+05        7.5580E+03
        5.8990E-09        0.0000E+00        3.9648E+05        7.5990E+03
        5.8880E-09        0.0000E+00        3.9878E+05        7.6460E+03
        5.8770E-09        0.0000E+00        3.9785E+05        7.6280E+03
        5.8650E-09        0.0000E+00        4.0079E+05        7.6890E+03
        5.8540E-09        0.0000E+00        4.0322E+05        7.7410E+03
        5.8430E-09        0.0000E+00        3.9894E+05        7.6550E+03
        5.8320E-09        0.0000E+00        3.9787E+05        7.6330E+03
        5.8210E-09        0.0000E+00        3.9487E+05        7.5710E+03
        5.8100E-09        0.0000E+00        3.9872E+05        7.6490E+03
        5.7990E-09        0.0000E+00        4.0044E+05        7.6850E+03
        5.7880E-09        0.0000E+00        3.9753E+05        7.6250E+03
        5.7780E-09        0.0000E+00        4.0652E+05        7.8100E+03
        5.7670E-09        0.0000E+00        4.0349E+05        7.7490E+03
        5.7560E-09        0.0000E+00        4.0489E+05        7.7800E+03
        5.7450E-09        0.0000E+00        4.0640E+05        7.8120E+03
        5.7340E-09        0.0000E+00        4.0450E+05        7.7740E+03
        5.7240E-09        0.0000E+00        4.0488E+05        7.7830E+03
        5.7130E-09        0.0000E+00        4.0061E+05        7.6950E+03
        5.7020E-09        0.0000E+00        4.0126E+05        7.7090E+03
        5.6920E-09        0.0000E+00        4.0265E+05        7.7380E+03
        5.6810E-09        0.0000E+00        4.0445E+05        7.7740E+03
        5.6710E-09        0.0000E+00        4.0742E+05        7.8360E+03
        5.6600E-09        0.0000E+00        4.0157E+05        7.7170E+03
        5.6490E-09        0.0000E+00        4.0365E+05        7.7600E+03
        5.6390E-09        0.0000E+00        4.0534E+05        7.7950E+03
        5.6290E-09        0.0000E+00        4.0503E+05        7.7890E+03
        5.6180E-09        0.0000E+00        4.0716E+05        7.8330E+03
        5.6080E-09        0.0000E+00        4.0324E+05        7.7530E+03
        5.5970E-09        0.0000E+00        4.0385E+05        7.7650E+03
        5.5870E-09        0.0000E+00        4.0419E+05        7.7720E+03
        5.5770E-09        0.0000E+00        4.0672E+05        7.8250E+03
        5.5660E-09        0.0000E+00        4.0700E+05        7.8310E+03
        5.5560E-09        0.0000E+00        4.0579E+05        7.8070E+03
        5.5460E-09        0.0000E+00        4.0606E+05        7.8120E+03
        5.5360E-09        0.0000E+00        4.0889E+05        7.8710E+03
        5.5260E-09        0.0000E+00        4.0774E+05        7.8470E+03
        5.5150E-09        0.0000E+00        4.0652E+05        7.8230E+03
        5.5050E-09        0.0000E+00        4.0499E+05        7.7910E+03
        5.4950E-09        0.0000E+00        4.0951E+05        7.8850E+03
        5.4850E-09        0.0000E+00        4.0579E+05        7.8090E+03
        5.4750E-09        0.0000E+00        4.1119E+05        7.9210E+03
        5.4650E-09        0.0000E+00        4.0899E+05        7.8770E+03
        5.4550E-09        0.0000E+00        4.1133E+05        7.9260E+03
        5.4450E-09        0.0000E+00        4.1440E+05        7.9920E+03
        5.4350E-09        0.0000E+00        4.1568E+05        8.0210E+03
        5.4250E-09        0.0000E+00        4.1676E+05        8.0470E+03
        5.4160E-09        0.0000E+00        4.1357E+05        7.9830E+03
        5.4060E-09        0.0000E+00        4.1159E+05        7.9430E+03
        5.3960E-09        0.0000E+00        4.0776E+05        7.8630E+03
        5.3860E-09        0.0000E+00        4.1262E+05        7.9640E+03
        5.3760E-09        0.0000E+00        4.1342E+05        7.9800E+03
        5.3670E-09        0.0000E+00        4.1617E+05        8.0390E+03
        5.3570E-09        0.0000E+00        4.1805E+05        8.0800E+03
        5.3470E-09        0.0000E+00        4.1759E+05        8.0750E+03
        5.3380E-09        0.0000E+00        4.2169E+05        8.1650E+03
        5.3280E-09        0.0000E+00        4.2299E+05        8.1950E+03
        5.3180E-09        0.0000E+00        4.1456E+05        8.0210E+03
        5.3090E-09        0.0000E+00        4.1304E+05        7.9900E+03
        5.2990E-09        0.0000E+00        4.1040E+05        7.9340E+03
        5.2900E-09        0.0000E+00        4.0944E+05        7.9120E+03
        5.2800E-09        0.0000E+00        4.1128E+05        7.9500E+03
        5.2710E-09        0.0000E+00        4.1273E+05        7.9800E+03
        5.2610E-09        0.0000E+00        4.1447E+05        8.0170E+03
        5.2520E-09        0.0000E+00        4.1733E+05        8.0780E+03
        5.2430E-09        0.0000E+00        4.2110E+05        8.1580E+03
        5.2330E-09        0.0000E+00        4.2014E+05        8.1400E+03
        5.2240E-09        0.0000E+00        4.1999E+05        8.1400E+03
        5.2150E-09        0.0000E+00        4.1586E+05        8.0560E+03
        5.2050E-09        0.0000E+00        4.1830E+05        8.1080E+03
        5.1960E-09        0.0000E+00        4.1524E+05        8.0440E+03
        5.1870E-09        0.0000E+00        4.1456E+05        8.0280E+03
        5.1770E-09        0.0000E+00        4.1402E+05        8.0150E+03
        5.1680E-09        0.0000E+00        4.1334E+05        7.9990E+03
        5.1590E-09        0.0000E+00        4.1517E+05        8.0370E+03
        5.1500E-09        0.0000E+00        4.2056E+05        8.1510E+03
        5.1410E-09        0.0000E+00        4.1972E+05        8.1340E+03
        5.1320E-09        0.0000E+00        4.2311E+05        8.2060E+03
        5.1230E-09        0.0000E+00        4.1697E+05        8.0780E+03
        5.1140E-09        0.0000E+00        4.1800E+05        8.1000E+03
        5.1050E-09        0.0000E+00        4.1877E+05        8.1160E+03
        5.0960E-09        0.0000E+00        4.1961E+05        8.1340E+03
        5.0870E-09        0.0000E+00        4.2223E+05        8.1900E+03
        5.0780E-09        0.0000E+00        4.2369E+05        8.2230E+03
        5.0690E-09        0.0000E+00        4.2965E+05        8.3510E+03
        5.0600E-09        0.0000E+00        4.2608E+05        8.2790E+03
        5.0510E-09        0.0000E+00        4.2626E+05        8.2870E+03
        5.0420E-09        0.0000E+00        4.2302E+05        8.2220E+03
        5.0330E-09        0.0000E+00        4.2419E+05        8.2490E+03
        5.0240E-09        0.0000E+00        4.2520E+05        8.2740E+03
        5.0160E-09        0.0000E+00        4.2628E+05        8.3000E+03
        5.0070E-09        0.0000E+00        4.2058E+05        8.1800E+03
        4.9980E-09        0.0000E+00        4.1853E+05        8.1360E+03
        4.9890E-09        0.0000E+00        4.1928E+05        8.1490E+03
        4.9810E-09        0.0000E+00        4.0941E+05        7.9400E+03
        4.9720E-09        0.0000E+00        4.1369E+05        8.0230E+03
        4.9630E-09        0.0000E+00        4.1412E+05        8.0280E+03
        4.9550E-09        0.0000E+00        4.1190E+05        7.9780E+03
        4.9460E-09        0.0000E+00        4.1479E+05        8.0320E+03
        4.9380E-09        0.0000E+00        4.2200E+05        8.1790E+03
        4.9290E-09        0.0000E+00        4.1676E+05        8.0660E+03
        4.9200E-09        0.0000E+00        4.2045E+05        8.1420E+03
        4.9120E-09        0.0000E+00        4.2300E+05        8.1930E+03
        4.9030E-09        0.0000E+00        4.2474E+05        8.2290E+03
        4.8950E-09        0.0000E+00        4.2449E+05        8.2230E+03
        4.8860E-09        0.0000E+00        4.2365E+05        8.2050E+03
        4.8780E-09        0.0000E+00        4.2567E+05        8.2470E+03
        4.8700E-09        0.0000E+00        4.2661E+05        8.2660E+03
        4.8610E-09        0.0000E+00        4.2965E+05        8.3300E+03
        4.8530E-09        0.0000E+00        4.2647E+05        8.2640E+03
        4.8450E-09        0.0000E+00        4.2965E+05        8.3310E+03
        4.8360E-09        0.0000E+00        4.2724E+05        8.2820E+03
        4.8280E-09        0.0000E+00        4.3461E+05        8.4380E+03
        4.8200E-09        0.0000E+00        4.3274E+05        8.4000E+03
        4.8110E-09        0.0000E+00        4.2943E+05        8.3330E+03
        4.8030E-09        0.0000E+00        4.2823E+05        8.3080E+03
        4.7950E-09        0.0000E+00        4.3066E+05        8.3610E+03
        4.7870E-09        0.0000E+00        4.2899E+05        8.3270E+03
        4.7790E-09        0.0000E+00        4.3097E+05        8.3680E+03
        4.7700E-09        0.0000E+00        4.2687E+05        8.2820E+03
        4.7620E-09        0.0000E+00        4.3382E+05        8.4280E+03
        4.7540E-09        0.0000E+00        4.2857E+05        8.3180E+03
        4.7460E-09        0.0000E+00        4.3157E+05        8.3820E+03
        4.7380E-09        0.0000E+00        4.2967E+05        8.3430E+03
        4.7300E-09        0.0000E+00        4.3394E+05        8.4350E+03
        4.7220E-09        0.0000E+00        4.3688E+05        8.5010E+03
        4.7140E-09        0.0000E+00        4.3317E+05        8.4250E+03
        4.7060E-09        0.0000E+00        4.3488E+05        8.4630E+03
        4.6980E-09        0.0000E+00        4.3329E+05        8.4320E+03
        4.6900E-09        0.0000E+00        4.2864E+05        8.3340E+03
        4.6820E-09        0.0000E+00        4.3206E+05        8.4080E+03
        4.6740E-09        0.0000E+00        4.3327E+05        8.4340E+03
        4.6660E-09        0.0000E+00        4.3800E+05        8.5360E+03
        4.6580E-09        0.0000E+00        4.3910E+05        8.5620E+03
        4.6510E-09        0.0000E+00        4.3551E+05        8.4890E+03
        4.6430E-09        0.0000E+00        4.3368E+05        8.4530E+03
        4.6350E-09        0.0000E+00        4.3539E+05        8.4880E+03
        4.6270E-09        0.0000E+00        4.3042E+05        8.3830E+03
        4.6190E-09        0.0000E+00        4.2836E+05        8.3370E+03
        4.6120E-09        0.0000E+00        4.2783E+05        8.3220E+03
        4.6040E-09        0.0000E+00        4.3212E+05        8.4100E+03
        4.5960E-09        0.0000E+00        4.3350E+05        8.4380E+03
        4.5880E-09        0.0000E+00        4.2959E+05        8.3540E+03
        4.5810E-09        0.0000E+00        4.3407E+05        8.4470E+03
        4.5730E-09        0.0000E+00        4.3957E+05        8.5630E+03
        4.5650E-09        0.0000E+00        4.3846E+05        8.5390E+03
        4.5580E-09        0.0000E+00        4.3296E+05        8.4210E+03
        4.5500E-09        0.0000E+00        4.3230E+05        8.4070E+03
        4.5430E-09        0.0000E+00        4.3598E+05        8.4850E+03
        4.5350E-09        0.0000E+00        4.3870E+05        8.5430E+03
        4.5280E-09        0.0000E+00        4.3541E+05        8.4730E+03
        4.5200E-09        0.0000E+00        4.3658E+05        8.4950E+03
        4.5130E-09        0.0000E+00        4.3608E+05        8.4840E+03
        4.5050E-09        0.0000E+00        4.3537E+05        8.4680E+03
        4.4980E-09        0.0000E+00        4.3834E+05        8.5300E+03
        4.4900E-09        0.0000E+00        4.3952E+05        8.5560E+03
        4.4830E-09        0.0000E+00        4.4255E+05        8.6220E+03
        4.4750E-09        0.0000E+00        4.4590E+05        8.6950E+03
        4.4680E-09        0.0000E+00        4.4173E+05        8.6080E+03
        4.4610E-09        0.0000E+00        4.4174E+05        8.6090E+03
        4.4530E-09        0.0000E+00        4.3763E+05        8.5220E+03
        4.4460E-09        0.0000E+00        4.3951E+05        8.5620E+03
        4.4390E-09        0.0000E+00        4.3653E+05        8.4980E+03
        4.4310E-09        0.0000E+00        4.3858E+05        8.5410E+03
        4.4240E-09        0.0000E+00        4.3773E+05        8.5230E+03
        4.4170E-09        0.0000E+00        4.4089E+05        8.5900E+03
        4.4090E-09        0.0000E+00        4.4185E+05        8.6100E+03
        4.4020E-09        0.0000E+00        4.4729E+05        8.7270E+03
        4.3950E-09        0.0000E+00        4.4666E+05        8.7170E+03
        4.3880E-09        0.0000E+00        4.4696E+05        8.7280E+03
        4.3810E-09        0.0000E+00        4.4208E+05        8.6260E+03
        4.3730E-09        0.0000E+00        4.4462E+05        8.6790E+03
        4.3660E-09        0.0000E+00        4.4284E+05        8.6400E+03
        4.3590E-09        0.0000E+00        4.4288E+05        8.6390E+03
        4.3520E-09        0.0000E+00        4.4402E+05        8.6640E+03
        4.3450E-09        0.0000E+00        4.4560E+05        8.6980E+03
        4.3380E-09        0.0000E+00        4.4459E+05        8.6780E+03
        4.3310E-09        0.0000E+00        4.4814E+05        8.7520E+03
        4.3240E-09        0.0000E+00        4.4187E+05        8.6190E+03
        4.3170E-09        0.0000E+00        4.4626E+05        8.7130E+03
        4.3100E-09        0.0000E+00        4.4460E+05        8.6760E+03
        4.3030E-09        0.0000E+00        4.4440E+05        8.6720E+03
        4.2960E-09        0.0000E+00        4.4940E+05        8.7780E+03
        4.2890E-09        0.0000E+00        4.4888E+05        8.7660E+03
        4.2820E-09        0.0000E+00        4.4499E+05        8.6830E+03
        4.2750E-09        0.0000E+00        4.4654E+05        8.7150E+03
        4.2680E-09        0.0000E+00        4.4401E+05        8.6610E+03
        4.2610E-09        0.0000E+00        4.4827E+05        8.7500E+03
        4.2540E-09        0.0000E+00        4.4907E+05        8.7680E+03
        4.2480E-09        0.0000E+00        4.5063E+05        8.8020E+03
        4.2410E-09        0.0000E+00        4.5340E+05        8.8630E+03
        4.2340E-09        0.0000E+00        4.5332E+05        8.8650E+03
        4.2270E-09        0.0000E+00        4.5569E+05        8.9190E+03
        4.2200E-09        0.0000E+00        4.5197E+05        8.8430E+03
        4.2140E-09        0.0000E+00        4.4935E+05        8.7870E+03
        4.2070E-09        0.0000E+00        4.5154E+05        8.8340E+03
        4.2000E-09        0.0000E+00        4.5108E+05        8.8250E+03
        4.1930E-09        0.0000E+00        4.5064E+05        8.8180E+03
        4.1870E-09        0.0000E+00        4.5068E+05        8.8200E+03
        4.1800E-09        0.0000E+00        4.4559E+05        8.7130E+03
        4.1730E-09        0.0000E+00        4.5562E+05        8.9300E+03
        4.1670E-09        0.0000E+00        4.5463E+05        8.9120E+03
        4.1600E-09        0.0000E+00        4.5030E+05        8.8230E+03
        4.1530E-09        0.0000E+00        4.5083E+05        8.8380E+03
        4.1470E-09        0.0000E+00        4.5381E+05        8.9030E+03
        4.1400E-09        0.0000E+00        4.5187E+05        8.8650E+03
        4.1340E-09        0.0000E+00        4.4606E+05        8.7460E+03
        4.1270E-09        0.0000E+00        4.4930E+05        8.8170E+03
        4.1210E-09        0.0000E+00        4.5106E+05        8.8560E+03
        4.1140E-09        0.0000E+00        4.4742E+05        8.7800E+03
        4.1070E-09        0.0000E+00        4.5348E+05        8.9100E+03
        4.1010E-09        0.0000E+00        4.5396E+05        8.9240E+03
        4.0940E-09        0.0000E+00        4.4799E+05        8.7980E+03
        4.0880E-09        0.0000E+00        4.5685E+05        8.9900E+03
        4.0820E-09        0.0000E+00        4.5467E+05        8.9460E+03
        4.0750E-09        0.0000E+00        4.5220E+05        8.8940E+03
        4.0690E-09        0.0000E+00        4.5186E+05        8.8880E+03
        4.0620E-09        0.0000E+00        4.5584E+05        8.9740E+03
        4.0560E-09        0.0000E+00        4.5646E+05        8.9910E+03
        4.0500E-09        0.0000E+00        4.5655E+05        8.9990E+03
        4.0430E-09        0.0000E+00        4.6178E+05        9.1150E+03
        4.0370E-09        0.0000E+00        4.5504E+05        8.9720E+03
        4.0300E-09        0.0000E+00        4.5426E+05        8.9560E+03
        4.0240E-09        0.0000E+00        4.5564E+05        8.9830E+03
        4.0180E-09        0.0000E+00        4.5158E+05        8.8930E+03
        4.0120E-09        0.0000E+00        4.5329E+05        8.9310E+03
        4.0050E-09        0.0000E+00        4.6122E+05        9.1040E+03
        3.9990E-09        0.0000E+00        4.6088E+05        9.1000E+03
        3.9930E-09        0.0000E+00        4.6052E+05        9.0970E+03
        3.9870E-09        0.0000E+00        4.6237E+05        9.1410E+03
        3.9800E-09        0.0000E+00        4.6127E+05        9.1180E+03
        3.9740E-09        0.0000E+00        4.5924E+05        9.0740E+03
        3.9680E-09        0.0000E+00        4.5906E+05        9.0710E+03
        3.9620E-09        0.0000E+00        4.6109E+05        9.1160E+03
        3.9560E-09        0.0000E+00        4.6382E+05        9.1740E+03
        3.9500E-09        0.0000E+00        4.6260E+05        9.1510E+03
        3.9430E-09        0.0000E+00        4.6604E+05        9.2300E+03
        3.9370E-09        0.0000E+00        4.6382E+05        9.1820E+03
        3.9310E-09        0.0000E+00        4.5869E+05        9.0730E+03
        3.9250E-09        0.0000E+00        4.5736E+05        9.0420E+03
        3.9190E-09        0.0000E+00        4.6022E+05        9.1040E+03
        3.9130E-09        0.0000E+00        4.6567E+05        9.2240E+03
        3.9070E-09        0.0000E+00        4.6930E+05        9.3050E+03
        3.9010E-09        0.0000E+00        4.6667E+05        9.2540E+03
        3.8950E-09        0.0000E+00        4.7204E+05        9.3780E+03
        3.8890E-09        0.0000E+00        4.7964E+05        9.5550E+03
        3.8830E-09        0.0000E+00        4.7942E+05        9.5620E+03
        3.8770E-09        0.0000E+00        4.7483E+05        9.4680E+03
        3.8710E-09        0.0000E+00        4.7884E+05        9.5620E+03
        3.8650E-09        0.0000E+00        4.7038E+05        9.3830E+03
        3.8590E-09        0.0000E+00        4.7101E+05        9.4040E+03
        3.8530E-09        0.0000E+00        4.6692E+05        9.3180E+03
        3.8470E-09        0.0000E+00        4.6342E+05        9.2420E+03
        3.8410E-09        0.0000E+00        4.6715E+05        9.3240E+03
        3.8350E-09        0.0000E+00        4.6310E+05        9.2360E+03
        3.8300E-09        0.0000E+00        4.6157E+05        9.2030E+03
        3.8240E-09        0.0000E+00        4.6694E+05        9.3190E+03
        3.8180E-09        0.0000E+00        4.6930E+05        9.3700E+03
        3.8120E-09        0.0000E+00        4.7042E+05        9.4000E+03
        3.8060E-09        0.0000E+00        4.7141E+05        9.4250E+03
        3.8000E-09        0.0000E+00        4.7908E+05        9.6010E+03
        3.7950E-09        0.0000E+00        4.7259E+05        9.4630E+03
        3.7890E-09        0.0000E+00        4.7596E+05        9.5430E+03
        3.7830E-09        0.0000E+00        4.8070E+05        9.6530E+03
        3.7770E-09        0.0000E+00        4.7557E+05        9.5450E+03
        3.7720E-09        0.0000E+00        4.8060E+05        9.6610E+03
        3.7660E-09        0.0000E+00        4.7362E+05        9.5130E+03
        3.7600E-09        0.0000E+00        4.8120E+05        9.6980E+03
        3.7550E-09        0.0000E+00        4.8786E+05        9.8630E+03
        3.7490E-09        0.0000E+00        4.8031E+05        9.7080E+03
        3.7430E-09        0.0000E+00        4.6982E+05        9.4780E+03
        3.7380E-09        0.0000E+00        4.6840E+05        9.4390E+03
        3.7320E-09        0.0000E+00        4.6596E+05        9.3780E+03
        3.7260E-09        0.0000E+00        4.5353E+05        9.0910E+03
        3.7210E-09        0.0000E+00        4.6091E+05        9.2390E+03
        3.7150E-09        0.0000E+00        4.5905E+05        9.1890E+03
        3.7090E-09        0.0000E+00        4.6138E+05        9.2310E+03
        3.7040E-09        0.0000E+00        4.6618E+05        9.3270E+03
        3.6980E-09        0.0000E+00        4.6806E+05        9.3640E+03
        3.6930E-09        0.0000E+00        4.7181E+05        9.4440E+03
        3.6870E-09        0.0000E+00        4.7429E+05        9.4990E+03
        3.6820E-09        0.0000E+00        4.7786E+05        9.5840E+03
        3.6760E-09        0.0000E+00        4.7431E+05        9.5080E+03
        3.6710E-09        0.0000E+00        4.7933E+05        9.6260E+03
        3.6650E-09        0.0000E+00        4.8267E+05        9.7070E+03
        3.6600E-09        0.0000E+00        4.8131E+05        9.6810E+03
        3.6540E-09        0.0000E+00        4.6664E+05        9.3550E+03
        3.6490E-09        0.0000E+00        4.7555E+05        9.5490E+03
        3.6430E-09        0.0000E+00        4.8070E+05        9.6630E+03
        3.6380E-09        0.0000E+00        4.7231E+05        9.4790E+03
        3.6330E-09        0.0000E+00        4.8088E+05        9.6730E+03
        3.6270E-09        0.0000E+00        4.8137E+05        9.6920E+03
        3.6220E-09        0.0000E+00        4.8345E+05        9.7440E+03
        3.6160E-09        0.0000E+00        4.7960E+05        9.6630E+03
        3.6110E-09        0.0000E+00        4.8152E+05        9.7110E+03
        3.6060E-09        0.0000E+00        4.7518E+05        9.5720E+03
        3.6000E-09        0.0000E+00        4.8178E+05        9.7220E+03
        3.5950E-09        0.0000E+00        4.7398E+05        9.5490E+03
        3.5900E-09        0.0000E+00        4.7512E+05        9.5740E+03
        3.5840E-09        0.0000E+00        4.7385E+05        9.5470E+03
        3.5790E-09        0.0000E+00        4.8462E+05        9.7920E+03
        3.5740E-09        0.0000E+00        4.8375E+05        9.7780E+03
        3.5680E-09        0.0000E+00        4.8982E+05        9.9260E+03
        3.5630E-09        0.0000E+00        4.8924E+05        9.9260E+03
        3.5580E-09        0.0000E+00        4.8848E+05        9.9280E+03
        3.5530E-09        0.0000E+00        4.8921E+05        9.9650E+03
        3.5470E-09        0.0000E+00        4.9864E+05        1.0203E+04
        3.5420E-09        0.0000E+00        5.0178E+05        1.0308E+04
        3.5370E-09        0.0000E+00        5.0313E+05        1.0379E+04
        3.5320E-09        0.0000E+00        5.1449E+05        1.0691E+04
        3.5270E-09        0.0000E+00        4.9918E+05        1.0374E+04
        3.5210E-09        0.0000E+00        4.9824E+05        1.0389E+04
        3.5160E-09        0.0000E+00        5.1303E+05        1.0791E+04
        3.5110E-09        0.0000E+00        4.9786E+05        1.0483E+04
        3.5060E-09        0.0000E+00        5.0679E+05        1.0748E+04
        3.5010E-09        0.0000E+00        5.0244E+05        1.0702E+04
